*RAS_DATA_START
*RAS_HEADER_START
*DISP_FMT_X "%.2f"
*DISP_FMT_Y "%.0f"
*DISP_FULLSCALE "699.6000000000"
*DISP_LINE_COLOR "255.0000000000"
*DISP_LINE_STYLE "0.0000000000"
*DISP_LINE_WIDTH "0.2500000000"
*DISP_NOTE "Collected Data-1"
*DISP_OFFSET_Y "0.0000000000"
*DISP_PEAKSEARCH_UNIT_Y "COUNTS"
*DISP_RANGE_BOTTOM "0.0000000000"
*DISP_RANGE_LEFT "10.0000000000"
*DISP_RANGE_LOGCUTOFF "0.0100000000"
*DISP_RANGE_RIGHT "90.0000000000"
*DISP_RANGE_TOP "699.6000000000"
*DISP_SCALE_MODE_Y "0.0000000000"
*DISP_TAB_NAME "Theta/2-Theta"
*DISP_TITLE_Y "Intensity"
*DISP_UNIT_Y "COUNTS"
*DISP_WINDOW_NAME "MSG_MACROENGINE"
*FILE_COMMENT " "
*FILE_MD5 ""
*FILE_MEMO " "
*FILE_OPERATOR "Administrator"
*FILE_PART_ID "MEAS_PBEA_00223"
*FILE_SAMPLE "Hematite"
*FILE_TYPE "RAS_RAW"
*FILE_USERGROUP "System Manager"
*FILE_VERSION "1.0000000000"
*HW_ATTACHMENT_ID "ATT1031"
*HW_ATTACHMENT_NAME "6サンプルチェンジャ|ASC-6"
*HW_COUNTER_ID-0 "CUT0021"
*HW_COUNTER_ID-1 "CUT0020"
*HW_COUNTER_ID-2 "CUT0020"
*HW_COUNTER_ID-3 "CMC0021"
*HW_COUNTER_NAME-0 "SC-70|SC-70"
*HW_COUNTER_NAME-1 "None|None"
*HW_COUNTER_NAME-2 "None|None"
*HW_COUNTER_NAME-3 "検出器モノクロメータ|Detector monochromator"
*HW_COUNTER_SELECT_NAME "SC-70|SC-70"
*HW_ECP_HV "714.0000000000"
*HW_ECP_HV_UNIT "V"
*HW_GONIOMETER_ID "GON0070"
*HW_GONIOMETER_NAME "MiniFlex 300/600|MiniFlex 300/600"
*HW_GONIOMETER_RADIUS-0 "79.0"
*HW_GONIOMETER_RADIUS-1 "91.5"
*HW_GONIOMETER_RADIUS-2 "150.0"
*HW_GONIOMETER_RADIUS-3 "0"
*HW_GONIOMETER_RADIUS-4 "103.4"
*HW_GONIOMETER_RADIUS-5 "150.0"
*HW_GONIOMETER_RADIUS-6 "46.6"
*HW_GONIOMETER_RADIUS-7 "160.0"
*HW_I_OPT_ID-0 "ISL0021"
*HW_I_OPT_ID-1 "ISO0021"
*HW_I_OPT_NAME-0 "発散スリット|Divergence slit"
*HW_I_OPT_NAME-1 "入射平行スリット|Incident parallel slit"
*HW_R_ATTENUATER_AUTOMODE "0"
*HW_R_OPT_ID-0 "RSS0021"
*HW_R_OPT_ID-1 "RSO0021"
*HW_R_OPT_ID-2 "RRS0021"
*HW_R_OPT_NAME-0 "散乱スリット|Scattering slit"
*HW_R_OPT_NAME-1 "受光平行スリット|Receiving soller slit"
*HW_R_OPT_NAME-2 "受光スリット|Receiving slit"
*HW_SAMPLE_HOLDER_ID "SMP0000"
*HW_SAMPLE_HOLDER_NAME "無し|None"
*HW_XG_CURRENT_MAX "50"
*HW_XG_CURRENT_MIN "2"
*HW_XG_CURRENT_RESOLUTION "2"
*HW_XG_CURRENT_UNIT "mA"
*HW_XG_FOCUS "1mm x 10mm"
*HW_XG_FOCUS_TYPE "Normal"
*HW_XG_ID "1062"
*HW_XG_NAME "300W/600W 封入管-A|300W/600W Sealed tube-A"
*HW_XG_TARGET_ATOMIC_NUMBER "29.0000000000"
*HW_XG_TARGET_NAME "Cu"
*HW_XG_TYPE "Compact"
*HW_XG_VOLTAGE_MAX "60"
*HW_XG_VOLTAGE_MIN "20"
*HW_XG_VOLTAGE_RESOLUTION "2"
*HW_XG_VOLTAGE_UNIT "kV"
*HW_XG_WATT_MAX "2.000"
*HW_XG_WATT_UNIT "kW"
*HW_XG_WAVE_LENGTH_ALPHA1 "1.540593"
*HW_XG_WAVE_LENGTH_ALPHA2 "1.544414"
*HW_XG_WAVE_LENGTH_BETA "1.392250"
*MEAS_COND_AXIS_NAME-0 "Theta/2-Theta"
*MEAS_COND_AXIS_NAME-1 "Spin"
*MEAS_COND_AXIS_NAME-2 "Change"
*MEAS_COND_AXIS_NAME-3 "Soller(inc.)"
*MEAS_COND_AXIS_NAME-4 "IHS"
*MEAS_COND_AXIS_NAME-5 "DS"
*MEAS_COND_AXIS_NAME-6 "SS"
*MEAS_COND_AXIS_NAME-7 "Soller(rec.)"
*MEAS_COND_AXIS_NAME-8 "RS"
*MEAS_COND_AXIS_NAME-9 "Filter"
*MEAS_COND_AXIS_NAME-10 "Monochromator"
*MEAS_COND_AXIS_NAME-11 "HV"
*MEAS_COND_AXIS_NAME-12 "PHA"
*MEAS_COND_AXIS_NAME_INTERNAL-0 "TwoThetaTheta"
*MEAS_COND_AXIS_NAME_INTERNAL-1 "Spin"
*MEAS_COND_AXIS_NAME_INTERNAL-2 "Change"
*MEAS_COND_AXIS_NAME_INTERNAL-3 "IncidentSollerSlit"
*MEAS_COND_AXIS_NAME_INTERNAL-4 "IncidentAxdSlit"
*MEAS_COND_AXIS_NAME_INTERNAL-5 "IncidentSlitBox"
*MEAS_COND_AXIS_NAME_INTERNAL-6 "ReceivingSlitBox1"
*MEAS_COND_AXIS_NAME_INTERNAL-7 "ReceivingSollerSlit"
*MEAS_COND_AXIS_NAME_INTERNAL-8 "ReceivingSlitBox2"
*MEAS_COND_AXIS_NAME_INTERNAL-9 "Filter"
*MEAS_COND_AXIS_NAME_INTERNAL-10 "CounterMonochromator"
*MEAS_COND_AXIS_NAME_INTERNAL-11 "HV"
*MEAS_COND_AXIS_NAME_INTERNAL-12 "PHA"
*MEAS_COND_AXIS_NAME_MAGICNO-0 "268632064.0000000000"
*MEAS_COND_AXIS_NAME_MAGICNO-1 "16842752.0000000000"
*MEAS_COND_AXIS_NAME_MAGICNO-2 "16842752.0000000000"
*MEAS_COND_AXIS_NAME_MAGICNO-3 "20971521.0000000000"
*MEAS_COND_AXIS_NAME_MAGICNO-4 "22020097.0000000000"
*MEAS_COND_AXIS_NAME_MAGICNO-5 "22020097.0000000000"
*MEAS_COND_AXIS_NAME_MAGICNO-6 "23068673.0000000000"
*MEAS_COND_AXIS_NAME_MAGICNO-7 "20971521.0000000000"
*MEAS_COND_AXIS_NAME_MAGICNO-8 "23068673.0000000000"
*MEAS_COND_AXIS_NAME_MAGICNO-9 "20971521.0000000000"
*MEAS_COND_AXIS_NAME_MAGICNO-10 "20971521.0000000000"
*MEAS_COND_AXIS_NAME_MAGICNO-11 "0.0000000000"
*MEAS_COND_AXIS_NAME_MAGICNO-12 "0.0000000000"
*MEAS_COND_AXIS_OFFSET-0 "0.0000000000"
*MEAS_COND_AXIS_OFFSET-1 "-"
*MEAS_COND_AXIS_OFFSET-2 "-"
*MEAS_COND_AXIS_OFFSET-3 "-"
*MEAS_COND_AXIS_OFFSET-4 "-"
*MEAS_COND_AXIS_OFFSET-5 "-"
*MEAS_COND_AXIS_OFFSET-6 "-"
*MEAS_COND_AXIS_OFFSET-7 "-"
*MEAS_COND_AXIS_OFFSET-8 "-"
*MEAS_COND_AXIS_OFFSET-9 "-"
*MEAS_COND_AXIS_OFFSET-10 "-"
*MEAS_COND_AXIS_OFFSET-11 "-"
*MEAS_COND_AXIS_OFFSET-12 "-"
*MEAS_COND_AXIS_POSITION-0 "10.0000000000"
*MEAS_COND_AXIS_POSITION-1 "0.0000000000"
*MEAS_COND_AXIS_POSITION-2 "3.0000000000"
*MEAS_COND_AXIS_POSITION-3 "2.5deg"
*MEAS_COND_AXIS_POSITION-4 "10.0mm"
*MEAS_COND_AXIS_POSITION-5 "1.250deg"
*MEAS_COND_AXIS_POSITION-6 "13.0mm(Open)"
*MEAS_COND_AXIS_POSITION-7 "5.0deg"
*MEAS_COND_AXIS_POSITION-8 "13.0mm"
*MEAS_COND_AXIS_POSITION-9 "None"
*MEAS_COND_AXIS_POSITION-10 "None"
*MEAS_COND_AXIS_POSITION-11 "714.0000000000"
*MEAS_COND_AXIS_POSITION-12 "568.7500000000"
*MEAS_COND_AXIS_UNIT-0 "deg"
*MEAS_COND_AXIS_UNIT-1 ""
*MEAS_COND_AXIS_UNIT-2 ""
*MEAS_COND_AXIS_UNIT-3 ""
*MEAS_COND_AXIS_UNIT-4 ""
*MEAS_COND_AXIS_UNIT-5 ""
*MEAS_COND_AXIS_UNIT-6 ""
*MEAS_COND_AXIS_UNIT-7 ""
*MEAS_COND_AXIS_UNIT-8 ""
*MEAS_COND_AXIS_UNIT-9 ""
*MEAS_COND_AXIS_UNIT-10 ""
*MEAS_COND_AXIS_UNIT-11 "V"
*MEAS_COND_AXIS_UNIT-12 "mV"
*MEAS_COND_CORRECTION_SLIT_COUNTERMONO "None"
*MEAS_COND_CORRECTION_SLIT_DS "1.250deg"
*MEAS_COND_CORRECTION_SLIT_FILTER "None"
*MEAS_COND_CORRECTION_SLIT_IHS "10.0mm"
*MEAS_COND_CORRECTION_SLIT_RS "13.0mm"
*MEAS_COND_CORRECTION_SLIT_SOLLER_INC "2.5deg"
*MEAS_COND_CORRECTION_SLIT_SOLLER_REC "5.0deg"
*MEAS_COND_CORRECTION_SLIT_SS "13.0mm"
*MEAS_COND_COUNTER_CNTLOSS_CORR "0.0000000000"
*MEAS_COND_COUNTER_PHABASE "568.7500000000"
*MEAS_COND_COUNTER_PHAWINDOW "926.2500000000"
*MEAS_COND_COUNTER_PHA_UNIT "mV"
*MEAS_COND_COUNTER_TAUDIFF "0.2500000000"
*MEAS_COND_COUNTER_TAUINT "0.7500000000"
*MEAS_COND_IRRADIATION_MODE "OFF"
*MEAS_COND_IRRADIATION_WIDTH ""
*MEAS_COND_OPT_ATTR " "
*MEAS_COND_OPT_NAME ""
*MEAS_COND_UNSYMMETRIC_MODE "OFF"
*MEAS_COND_XG_CURRENT "15.0000000000"
*MEAS_COND_XG_VOLTAGE "40.0000000000"
*MEAS_COND_XG_WAVE_TYPE "Ka"
*MEAS_DATA_COUNT "4001.0000000000"
*MEAS_SCAN_AXIS_X "Theta/2-Theta"
*MEAS_SCAN_AXIS_X_INTERNAL "TwoThetaTheta"
*MEAS_SCAN_END_TIME "03/07/24 14:38:08"
*MEAS_SCAN_MODE "CONTINUOUS"
*MEAS_SCAN_MONITOR "0"
*MEAS_SCAN_RESOLUTION_X "0.0025"
*MEAS_SCAN_SPEED "2.0000"
*MEAS_SCAN_SPEED_UNIT "deg/min"
*MEAS_SCAN_SPEED_USER "2.0000"
*MEAS_SCAN_START "10.0000000000"
*MEAS_SCAN_START_TIME "03/07/24 13:58:00"
*MEAS_SCAN_STEP "0.0200000000"
*MEAS_SCAN_STOP "90.0000000000"
*MEAS_SCAN_UNIT_X "deg"
*MEAS_SCAN_UNIT_Y "counts"
*SLIT_SYSTEM "0"
*RAS_HEADER_END
*RAS_INT_START
10.0000 501.0000 1.0000
10.0200 489.0000 1.0000
10.0400 467.0000 1.0000
10.0600 453.0000 1.0000
10.0800 467.0000 1.0000
10.1000 459.0000 1.0000
10.1200 441.0000 1.0000
10.1400 511.0000 1.0000
10.1600 532.0000 1.0000
10.1800 507.0000 1.0000
10.2000 467.0000 1.0000
10.2200 543.0000 1.0000
10.2400 464.0000 1.0000
10.2600 457.0000 1.0000
10.2800 467.0000 1.0000
10.3000 472.0000 1.0000
10.3200 447.0000 1.0000
10.3400 477.0000 1.0000
10.3600 460.0000 1.0000
10.3800 448.0000 1.0000
10.4000 464.0000 1.0000
10.4200 470.0000 1.0000
10.4400 453.0000 1.0000
10.4600 420.0000 1.0000
10.4800 439.0000 1.0000
10.5000 504.0000 1.0000
10.5200 474.0000 1.0000
10.5400 438.0000 1.0000
10.5600 391.0000 1.0000
10.5800 442.0000 1.0000
10.6000 460.0000 1.0000
10.6200 440.0000 1.0000
10.6400 413.0000 1.0000
10.6600 452.0000 1.0000
10.6800 415.0000 1.0000
10.7000 430.0000 1.0000
10.7200 495.0000 1.0000
10.7400 428.0000 1.0000
10.7600 396.0000 1.0000
10.7800 475.0000 1.0000
10.8000 422.0000 1.0000
10.8200 413.0000 1.0000
10.8400 490.0000 1.0000
10.8600 429.0000 1.0000
10.8800 447.0000 1.0000
10.9000 413.0000 1.0000
10.9200 491.0000 1.0000
10.9400 484.0000 1.0000
10.9600 432.0000 1.0000
10.9800 453.0000 1.0000
11.0000 415.0000 1.0000
11.0200 480.0000 1.0000
11.0400 452.0000 1.0000
11.0600 473.0000 1.0000
11.0800 424.0000 1.0000
11.1000 438.0000 1.0000
11.1200 469.0000 1.0000
11.1400 438.0000 1.0000
11.1600 456.0000 1.0000
11.1800 442.0000 1.0000
11.2000 434.0000 1.0000
11.2200 457.0000 1.0000
11.2400 437.0000 1.0000
11.2600 432.0000 1.0000
11.2800 426.0000 1.0000
11.3000 453.0000 1.0000
11.3200 453.0000 1.0000
11.3400 427.0000 1.0000
11.3600 411.0000 1.0000
11.3800 407.0000 1.0000
11.4000 454.0000 1.0000
11.4200 416.0000 1.0000
11.4400 402.0000 1.0000
11.4600 395.0000 1.0000
11.4800 437.0000 1.0000
11.5000 454.0000 1.0000
11.5200 438.0000 1.0000
11.5400 384.0000 1.0000
11.5600 409.0000 1.0000
11.5800 439.0000 1.0000
11.6000 434.0000 1.0000
11.6200 425.0000 1.0000
11.6400 440.0000 1.0000
11.6600 433.0000 1.0000
11.6800 443.0000 1.0000
11.7000 390.0000 1.0000
11.7200 402.0000 1.0000
11.7400 419.0000 1.0000
11.7600 385.0000 1.0000
11.7800 387.0000 1.0000
11.8000 409.0000 1.0000
11.8200 407.0000 1.0000
11.8400 373.0000 1.0000
11.8600 432.0000 1.0000
11.8800 434.0000 1.0000
11.9000 418.0000 1.0000
11.9200 408.0000 1.0000
11.9400 390.0000 1.0000
11.9600 430.0000 1.0000
11.9800 425.0000 1.0000
12.0000 404.0000 1.0000
12.0200 431.0000 1.0000
12.0400 398.0000 1.0000
12.0600 413.0000 1.0000
12.0800 404.0000 1.0000
12.1000 348.0000 1.0000
12.1200 427.0000 1.0000
12.1400 421.0000 1.0000
12.1600 392.0000 1.0000
12.1800 369.0000 1.0000
12.2000 405.0000 1.0000
12.2200 461.0000 1.0000
12.2400 463.0000 1.0000
12.2600 401.0000 1.0000
12.2800 433.0000 1.0000
12.3000 363.0000 1.0000
12.3200 399.0000 1.0000
12.3400 412.0000 1.0000
12.3600 378.0000 1.0000
12.3800 390.0000 1.0000
12.4000 465.0000 1.0000
12.4200 384.0000 1.0000
12.4400 424.0000 1.0000
12.4600 447.0000 1.0000
12.4800 361.0000 1.0000
12.5000 397.0000 1.0000
12.5200 430.0000 1.0000
12.5400 412.0000 1.0000
12.5600 447.0000 1.0000
12.5800 422.0000 1.0000
12.6000 356.0000 1.0000
12.6200 403.0000 1.0000
12.6400 376.0000 1.0000
12.6600 424.0000 1.0000
12.6800 367.0000 1.0000
12.7000 358.0000 1.0000
12.7200 431.0000 1.0000
12.7400 418.0000 1.0000
12.7600 405.0000 1.0000
12.7800 369.0000 1.0000
12.8000 428.0000 1.0000
12.8200 433.0000 1.0000
12.8400 367.0000 1.0000
12.8600 388.0000 1.0000
12.8800 420.0000 1.0000
12.9000 365.0000 1.0000
12.9200 405.0000 1.0000
12.9400 360.0000 1.0000
12.9600 362.0000 1.0000
12.9800 382.0000 1.0000
13.0000 361.0000 1.0000
13.0200 447.0000 1.0000
13.0400 379.0000 1.0000
13.0600 390.0000 1.0000
13.0800 428.0000 1.0000
13.1000 384.0000 1.0000
13.1200 369.0000 1.0000
13.1400 359.0000 1.0000
13.1600 371.0000 1.0000
13.1800 403.0000 1.0000
13.2000 347.0000 1.0000
13.2200 381.0000 1.0000
13.2400 413.0000 1.0000
13.2600 361.0000 1.0000
13.2800 375.0000 1.0000
13.3000 363.0000 1.0000
13.3200 392.0000 1.0000
13.3400 358.0000 1.0000
13.3600 366.0000 1.0000
13.3800 345.0000 1.0000
13.4000 383.0000 1.0000
13.4200 382.0000 1.0000
13.4400 365.0000 1.0000
13.4600 388.0000 1.0000
13.4800 366.0000 1.0000
13.5000 387.0000 1.0000
13.5200 390.0000 1.0000
13.5400 368.0000 1.0000
13.5600 425.0000 1.0000
13.5800 379.0000 1.0000
13.6000 352.0000 1.0000
13.6200 394.0000 1.0000
13.6400 342.0000 1.0000
13.6600 333.0000 1.0000
13.6800 391.0000 1.0000
13.7000 366.0000 1.0000
13.7200 386.0000 1.0000
13.7400 360.0000 1.0000
13.7600 320.0000 1.0000
13.7800 371.0000 1.0000
13.8000 380.0000 1.0000
13.8200 362.0000 1.0000
13.8400 369.0000 1.0000
13.8600 347.0000 1.0000
13.8800 332.0000 1.0000
13.9000 365.0000 1.0000
13.9200 354.0000 1.0000
13.9400 379.0000 1.0000
13.9600 365.0000 1.0000
13.9800 379.0000 1.0000
14.0000 336.0000 1.0000
14.0200 379.0000 1.0000
14.0400 392.0000 1.0000
14.0600 383.0000 1.0000
14.0800 340.0000 1.0000
14.1000 386.0000 1.0000
14.1200 346.0000 1.0000
14.1400 344.0000 1.0000
14.1600 383.0000 1.0000
14.1800 362.0000 1.0000
14.2000 370.0000 1.0000
14.2200 370.0000 1.0000
14.2400 364.0000 1.0000
14.2600 369.0000 1.0000
14.2800 383.0000 1.0000
14.3000 319.0000 1.0000
14.3200 301.0000 1.0000
14.3400 333.0000 1.0000
14.3600 336.0000 1.0000
14.3800 362.0000 1.0000
14.4000 346.0000 1.0000
14.4200 352.0000 1.0000
14.4400 369.0000 1.0000
14.4600 366.0000 1.0000
14.4800 358.0000 1.0000
14.5000 389.0000 1.0000
14.5200 329.0000 1.0000
14.5400 357.0000 1.0000
14.5600 352.0000 1.0000
14.5800 372.0000 1.0000
14.6000 365.0000 1.0000
14.6200 343.0000 1.0000
14.6400 367.0000 1.0000
14.6600 341.0000 1.0000
14.6800 355.0000 1.0000
14.7000 368.0000 1.0000
14.7200 348.0000 1.0000
14.7400 324.0000 1.0000
14.7600 334.0000 1.0000
14.7800 376.0000 1.0000
14.8000 348.0000 1.0000
14.8200 339.0000 1.0000
14.8400 387.0000 1.0000
14.8600 316.0000 1.0000
14.8800 375.0000 1.0000
14.9000 328.0000 1.0000
14.9200 365.0000 1.0000
14.9400 378.0000 1.0000
14.9600 355.0000 1.0000
14.9800 336.0000 1.0000
15.0000 317.0000 1.0000
15.0200 317.0000 1.0000
15.0400 336.0000 1.0000
15.0600 352.0000 1.0000
15.0800 345.0000 1.0000
15.1000 348.0000 1.0000
15.1200 331.0000 1.0000
15.1400 350.0000 1.0000
15.1600 288.0000 1.0000
15.1800 354.0000 1.0000
15.2000 342.0000 1.0000
15.2200 360.0000 1.0000
15.2400 338.0000 1.0000
15.2600 341.0000 1.0000
15.2800 368.0000 1.0000
15.3000 332.0000 1.0000
15.3200 326.0000 1.0000
15.3400 377.0000 1.0000
15.3600 360.0000 1.0000
15.3800 354.0000 1.0000
15.4000 348.0000 1.0000
15.4200 359.0000 1.0000
15.4400 357.0000 1.0000
15.4600 329.0000 1.0000
15.4800 350.0000 1.0000
15.5000 346.0000 1.0000
15.5200 323.0000 1.0000
15.5400 324.0000 1.0000
15.5600 350.0000 1.0000
15.5800 325.0000 1.0000
15.6000 295.0000 1.0000
15.6200 323.0000 1.0000
15.6400 332.0000 1.0000
15.6600 349.0000 1.0000
15.6800 379.0000 1.0000
15.7000 307.0000 1.0000
15.7200 322.0000 1.0000
15.7400 319.0000 1.0000
15.7600 290.0000 1.0000
15.7800 320.0000 1.0000
15.8000 354.0000 1.0000
15.8200 328.0000 1.0000
15.8400 288.0000 1.0000
15.8600 334.0000 1.0000
15.8800 295.0000 1.0000
15.9000 336.0000 1.0000
15.9200 301.0000 1.0000
15.9400 335.0000 1.0000
15.9600 344.0000 1.0000
15.9800 355.0000 1.0000
16.0000 336.0000 1.0000
16.0200 350.0000 1.0000
16.0400 319.0000 1.0000
16.0600 334.0000 1.0000
16.0800 324.0000 1.0000
16.1000 342.0000 1.0000
16.1200 321.0000 1.0000
16.1400 333.0000 1.0000
16.1600 292.0000 1.0000
16.1800 328.0000 1.0000
16.2000 305.0000 1.0000
16.2200 312.0000 1.0000
16.2400 343.0000 1.0000
16.2600 267.0000 1.0000
16.2800 319.0000 1.0000
16.3000 319.0000 1.0000
16.3200 318.0000 1.0000
16.3400 281.0000 1.0000
16.3600 323.0000 1.0000
16.3800 301.0000 1.0000
16.4000 316.0000 1.0000
16.4200 298.0000 1.0000
16.4400 309.0000 1.0000
16.4600 333.0000 1.0000
16.4800 350.0000 1.0000
16.5000 353.0000 1.0000
16.5200 295.0000 1.0000
16.5400 290.0000 1.0000
16.5600 304.0000 1.0000
16.5800 314.0000 1.0000
16.6000 311.0000 1.0000
16.6200 321.0000 1.0000
16.6400 285.0000 1.0000
16.6600 331.0000 1.0000
16.6800 322.0000 1.0000
16.7000 321.0000 1.0000
16.7200 306.0000 1.0000
16.7400 329.0000 1.0000
16.7600 307.0000 1.0000
16.7800 301.0000 1.0000
16.8000 328.0000 1.0000
16.8200 293.0000 1.0000
16.8400 295.0000 1.0000
16.8600 303.0000 1.0000
16.8800 271.0000 1.0000
16.9000 327.0000 1.0000
16.9200 305.0000 1.0000
16.9400 277.0000 1.0000
16.9600 330.0000 1.0000
16.9800 266.0000 1.0000
17.0000 312.0000 1.0000
17.0200 325.0000 1.0000
17.0400 312.0000 1.0000
17.0600 288.0000 1.0000
17.0800 302.0000 1.0000
17.1000 319.0000 1.0000
17.1200 314.0000 1.0000
17.1400 339.0000 1.0000
17.1600 312.0000 1.0000
17.1800 298.0000 1.0000
17.2000 293.0000 1.0000
17.2200 298.0000 1.0000
17.2400 305.0000 1.0000
17.2600 294.0000 1.0000
17.2800 309.0000 1.0000
17.3000 275.0000 1.0000
17.3200 318.0000 1.0000
17.3400 297.0000 1.0000
17.3600 293.0000 1.0000
17.3800 313.0000 1.0000
17.4000 296.0000 1.0000
17.4200 287.0000 1.0000
17.4400 288.0000 1.0000
17.4600 328.0000 1.0000
17.4800 298.0000 1.0000
17.5000 274.0000 1.0000
17.5200 319.0000 1.0000
17.5400 262.0000 1.0000
17.5600 282.0000 1.0000
17.5800 308.0000 1.0000
17.6000 324.0000 1.0000
17.6200 298.0000 1.0000
17.6400 275.0000 1.0000
17.6600 281.0000 1.0000
17.6800 318.0000 1.0000
17.7000 277.0000 1.0000
17.7200 327.0000 1.0000
17.7400 316.0000 1.0000
17.7600 283.0000 1.0000
17.7800 311.0000 1.0000
17.8000 290.0000 1.0000
17.8200 290.0000 1.0000
17.8400 320.0000 1.0000
17.8600 301.0000 1.0000
17.8800 289.0000 1.0000
17.9000 291.0000 1.0000
17.9200 304.0000 1.0000
17.9400 268.0000 1.0000
17.9600 298.0000 1.0000
17.9800 268.0000 1.0000
18.0000 310.0000 1.0000
18.0200 311.0000 1.0000
18.0400 328.0000 1.0000
18.0600 301.0000 1.0000
18.0800 294.0000 1.0000
18.1000 266.0000 1.0000
18.1200 312.0000 1.0000
18.1400 287.0000 1.0000
18.1600 279.0000 1.0000
18.1800 305.0000 1.0000
18.2000 301.0000 1.0000
18.2200 289.0000 1.0000
18.2400 265.0000 1.0000
18.2600 293.0000 1.0000
18.2800 319.0000 1.0000
18.3000 271.0000 1.0000
18.3200 329.0000 1.0000
18.3400 258.0000 1.0000
18.3600 306.0000 1.0000
18.3800 288.0000 1.0000
18.4000 294.0000 1.0000
18.4200 279.0000 1.0000
18.4400 333.0000 1.0000
18.4600 267.0000 1.0000
18.4800 244.0000 1.0000
18.5000 291.0000 1.0000
18.5200 306.0000 1.0000
18.5400 273.0000 1.0000
18.5600 342.0000 1.0000
18.5800 292.0000 1.0000
18.6000 288.0000 1.0000
18.6200 295.0000 1.0000
18.6400 302.0000 1.0000
18.6600 293.0000 1.0000
18.6800 270.0000 1.0000
18.7000 281.0000 1.0000
18.7200 276.0000 1.0000
18.7400 311.0000 1.0000
18.7600 302.0000 1.0000
18.7800 307.0000 1.0000
18.8000 302.0000 1.0000
18.8200 279.0000 1.0000
18.8400 321.0000 1.0000
18.8600 299.0000 1.0000
18.8800 303.0000 1.0000
18.9000 273.0000 1.0000
18.9200 278.0000 1.0000
18.9400 272.0000 1.0000
18.9600 279.0000 1.0000
18.9800 279.0000 1.0000
19.0000 270.0000 1.0000
19.0200 282.0000 1.0000
19.0400 266.0000 1.0000
19.0600 269.0000 1.0000
19.0800 253.0000 1.0000
19.1000 282.0000 1.0000
19.1200 276.0000 1.0000
19.1400 288.0000 1.0000
19.1600 257.0000 1.0000
19.1800 285.0000 1.0000
19.2000 266.0000 1.0000
19.2200 306.0000 1.0000
19.2400 309.0000 1.0000
19.2600 267.0000 1.0000
19.2800 293.0000 1.0000
19.3000 276.0000 1.0000
19.3200 284.0000 1.0000
19.3400 264.0000 1.0000
19.3600 269.0000 1.0000
19.3800 279.0000 1.0000
19.4000 282.0000 1.0000
19.4200 279.0000 1.0000
19.4400 278.0000 1.0000
19.4600 279.0000 1.0000
19.4800 253.0000 1.0000
19.5000 265.0000 1.0000
19.5200 273.0000 1.0000
19.5400 243.0000 1.0000
19.5600 286.0000 1.0000
19.5800 286.0000 1.0000
19.6000 290.0000 1.0000
19.6200 288.0000 1.0000
19.6400 280.0000 1.0000
19.6600 245.0000 1.0000
19.6800 307.0000 1.0000
19.7000 304.0000 1.0000
19.7200 275.0000 1.0000
19.7400 301.0000 1.0000
19.7600 268.0000 1.0000
19.7800 287.0000 1.0000
19.8000 265.0000 1.0000
19.8200 261.0000 1.0000
19.8400 272.0000 1.0000
19.8600 267.0000 1.0000
19.8800 271.0000 1.0000
19.9000 304.0000 1.0000
19.9200 264.0000 1.0000
19.9400 312.0000 1.0000
19.9600 268.0000 1.0000
19.9800 258.0000 1.0000
20.0000 259.0000 1.0000
20.0200 268.0000 1.0000
20.0400 233.0000 1.0000
20.0600 264.0000 1.0000
20.0800 301.0000 1.0000
20.1000 277.0000 1.0000
20.1200 292.0000 1.0000
20.1400 268.0000 1.0000
20.1600 271.0000 1.0000
20.1800 265.0000 1.0000
20.2000 263.0000 1.0000
20.2200 246.0000 1.0000
20.2400 278.0000 1.0000
20.2600 298.0000 1.0000
20.2800 235.0000 1.0000
20.3000 277.0000 1.0000
20.3200 279.0000 1.0000
20.3400 256.0000 1.0000
20.3600 292.0000 1.0000
20.3800 282.0000 1.0000
20.4000 291.0000 1.0000
20.4200 251.0000 1.0000
20.4400 275.0000 1.0000
20.4600 298.0000 1.0000
20.4800 272.0000 1.0000
20.5000 287.0000 1.0000
20.5200 311.0000 1.0000
20.5400 265.0000 1.0000
20.5600 288.0000 1.0000
20.5800 273.0000 1.0000
20.6000 259.0000 1.0000
20.6200 280.0000 1.0000
20.6400 316.0000 1.0000
20.6600 265.0000 1.0000
20.6800 282.0000 1.0000
20.7000 253.0000 1.0000
20.7200 248.0000 1.0000
20.7400 289.0000 1.0000
20.7600 269.0000 1.0000
20.7800 279.0000 1.0000
20.8000 266.0000 1.0000
20.8200 278.0000 1.0000
20.8400 295.0000 1.0000
20.8600 305.0000 1.0000
20.8800 273.0000 1.0000
20.9000 266.0000 1.0000
20.9200 263.0000 1.0000
20.9400 264.0000 1.0000
20.9600 273.0000 1.0000
20.9800 288.0000 1.0000
21.0000 288.0000 1.0000
21.0200 261.0000 1.0000
21.0400 294.0000 1.0000
21.0600 276.0000 1.0000
21.0800 274.0000 1.0000
21.1000 286.0000 1.0000
21.1200 284.0000 1.0000
21.1400 269.0000 1.0000
21.1600 269.0000 1.0000
21.1800 277.0000 1.0000
21.2000 255.0000 1.0000
21.2200 281.0000 1.0000
21.2400 290.0000 1.0000
21.2600 273.0000 1.0000
21.2800 267.0000 1.0000
21.3000 282.0000 1.0000
21.3200 295.0000 1.0000
21.3400 268.0000 1.0000
21.3600 288.0000 1.0000
21.3800 264.0000 1.0000
21.4000 265.0000 1.0000
21.4200 274.0000 1.0000
21.4400 262.0000 1.0000
21.4600 280.0000 1.0000
21.4800 306.0000 1.0000
21.5000 260.0000 1.0000
21.5200 297.0000 1.0000
21.5400 286.0000 1.0000
21.5600 277.0000 1.0000
21.5800 299.0000 1.0000
21.6000 285.0000 1.0000
21.6200 294.0000 1.0000
21.6400 280.0000 1.0000
21.6600 281.0000 1.0000
21.6800 267.0000 1.0000
21.7000 304.0000 1.0000
21.7200 306.0000 1.0000
21.7400 273.0000 1.0000
21.7600 281.0000 1.0000
21.7800 272.0000 1.0000
21.8000 280.0000 1.0000
21.8200 280.0000 1.0000
21.8400 260.0000 1.0000
21.8600 271.0000 1.0000
21.8800 271.0000 1.0000
21.9000 285.0000 1.0000
21.9200 264.0000 1.0000
21.9400 250.0000 1.0000
21.9600 265.0000 1.0000
21.9800 277.0000 1.0000
22.0000 304.0000 1.0000
22.0200 255.0000 1.0000
22.0400 270.0000 1.0000
22.0600 270.0000 1.0000
22.0800 281.0000 1.0000
22.1000 298.0000 1.0000
22.1200 281.0000 1.0000
22.1400 263.0000 1.0000
22.1600 282.0000 1.0000
22.1800 260.0000 1.0000
22.2000 239.0000 1.0000
22.2200 286.0000 1.0000
22.2400 247.0000 1.0000
22.2600 280.0000 1.0000
22.2800 269.0000 1.0000
22.3000 288.0000 1.0000
22.3200 285.0000 1.0000
22.3400 290.0000 1.0000
22.3600 247.0000 1.0000
22.3800 298.0000 1.0000
22.4000 251.0000 1.0000
22.4200 262.0000 1.0000
22.4400 248.0000 1.0000
22.4600 286.0000 1.0000
22.4800 284.0000 1.0000
22.5000 269.0000 1.0000
22.5200 295.0000 1.0000
22.5400 292.0000 1.0000
22.5600 284.0000 1.0000
22.5800 238.0000 1.0000
22.6000 288.0000 1.0000
22.6200 297.0000 1.0000
22.6400 295.0000 1.0000
22.6600 305.0000 1.0000
22.6800 263.0000 1.0000
22.7000 301.0000 1.0000
22.7200 273.0000 1.0000
22.7400 282.0000 1.0000
22.7600 253.0000 1.0000
22.7800 315.0000 1.0000
22.8000 280.0000 1.0000
22.8200 272.0000 1.0000
22.8400 250.0000 1.0000
22.8600 277.0000 1.0000
22.8800 297.0000 1.0000
22.9000 296.0000 1.0000
22.9200 251.0000 1.0000
22.9400 280.0000 1.0000
22.9600 258.0000 1.0000
22.9800 245.0000 1.0000
23.0000 265.0000 1.0000
23.0200 296.0000 1.0000
23.0400 286.0000 1.0000
23.0600 247.0000 1.0000
23.0800 245.0000 1.0000
23.1000 249.0000 1.0000
23.1200 272.0000 1.0000
23.1400 256.0000 1.0000
23.1600 277.0000 1.0000
23.1800 269.0000 1.0000
23.2000 262.0000 1.0000
23.2200 288.0000 1.0000
23.2400 260.0000 1.0000
23.2600 293.0000 1.0000
23.2800 265.0000 1.0000
23.3000 267.0000 1.0000
23.3200 251.0000 1.0000
23.3400 282.0000 1.0000
23.3600 330.0000 1.0000
23.3800 304.0000 1.0000
23.4000 260.0000 1.0000
23.4200 297.0000 1.0000
23.4400 290.0000 1.0000
23.4600 272.0000 1.0000
23.4800 244.0000 1.0000
23.5000 303.0000 1.0000
23.5200 284.0000 1.0000
23.5400 259.0000 1.0000
23.5600 280.0000 1.0000
23.5800 262.0000 1.0000
23.6000 281.0000 1.0000
23.6200 306.0000 1.0000
23.6400 252.0000 1.0000
23.6600 279.0000 1.0000
23.6800 260.0000 1.0000
23.7000 288.0000 1.0000
23.7200 264.0000 1.0000
23.7400 296.0000 1.0000
23.7600 268.0000 1.0000
23.7800 243.0000 1.0000
23.8000 297.0000 1.0000
23.8200 287.0000 1.0000
23.8400 281.0000 1.0000
23.8600 299.0000 1.0000
23.8800 291.0000 1.0000
23.9000 273.0000 1.0000
23.9200 296.0000 1.0000
23.9400 286.0000 1.0000
23.9600 301.0000 1.0000
23.9800 316.0000 1.0000
24.0000 314.0000 1.0000
24.0200 316.0000 1.0000
24.0400 286.0000 1.0000
24.0600 325.0000 1.0000
24.0800 364.0000 1.0000
24.1000 368.0000 1.0000
24.1200 374.0000 1.0000
24.1400 324.0000 1.0000
24.1600 370.0000 1.0000
24.1800 350.0000 1.0000
24.2000 336.0000 1.0000
24.2200 330.0000 1.0000
24.2400 303.0000 1.0000
24.2600 322.0000 1.0000
24.2800 303.0000 1.0000
24.3000 286.0000 1.0000
24.3200 323.0000 1.0000
24.3400 284.0000 1.0000
24.3600 296.0000 1.0000
24.3800 275.0000 1.0000
24.4000 289.0000 1.0000
24.4200 324.0000 1.0000
24.4400 338.0000 1.0000
24.4600 275.0000 1.0000
24.4800 281.0000 1.0000
24.5000 252.0000 1.0000
24.5200 302.0000 1.0000
24.5400 276.0000 1.0000
24.5600 264.0000 1.0000
24.5800 284.0000 1.0000
24.6000 311.0000 1.0000
24.6200 268.0000 1.0000
24.6400 295.0000 1.0000
24.6600 275.0000 1.0000
24.6800 258.0000 1.0000
24.7000 292.0000 1.0000
24.7200 254.0000 1.0000
24.7400 253.0000 1.0000
24.7600 267.0000 1.0000
24.7800 285.0000 1.0000
24.8000 263.0000 1.0000
24.8200 293.0000 1.0000
24.8400 257.0000 1.0000
24.8600 314.0000 1.0000
24.8800 279.0000 1.0000
24.9000 271.0000 1.0000
24.9200 250.0000 1.0000
24.9400 270.0000 1.0000
24.9600 263.0000 1.0000
24.9800 268.0000 1.0000
25.0000 257.0000 1.0000
25.0200 272.0000 1.0000
25.0400 287.0000 1.0000
25.0600 260.0000 1.0000
25.0800 260.0000 1.0000
25.1000 278.0000 1.0000
25.1200 294.0000 1.0000
25.1400 258.0000 1.0000
25.1600 270.0000 1.0000
25.1800 286.0000 1.0000
25.2000 306.0000 1.0000
25.2200 263.0000 1.0000
25.2400 270.0000 1.0000
25.2600 270.0000 1.0000
25.2800 268.0000 1.0000
25.3000 309.0000 1.0000
25.3200 284.0000 1.0000
25.3400 273.0000 1.0000
25.3600 325.0000 1.0000
25.3800 275.0000 1.0000
25.4000 268.0000 1.0000
25.4200 261.0000 1.0000
25.4400 301.0000 1.0000
25.4600 261.0000 1.0000
25.4800 277.0000 1.0000
25.5000 276.0000 1.0000
25.5200 259.0000 1.0000
25.5400 283.0000 1.0000
25.5600 290.0000 1.0000
25.5800 266.0000 1.0000
25.6000 254.0000 1.0000
25.6200 304.0000 1.0000
25.6400 257.0000 1.0000
25.6600 302.0000 1.0000
25.6800 277.0000 1.0000
25.7000 314.0000 1.0000
25.7200 282.0000 1.0000
25.7400 290.0000 1.0000
25.7600 268.0000 1.0000
25.7800 269.0000 1.0000
25.8000 265.0000 1.0000
25.8200 286.0000 1.0000
25.8400 283.0000 1.0000
25.8600 297.0000 1.0000
25.8800 299.0000 1.0000
25.9000 280.0000 1.0000
25.9200 277.0000 1.0000
25.9400 247.0000 1.0000
25.9600 287.0000 1.0000
25.9800 278.0000 1.0000
26.0000 265.0000 1.0000
26.0200 281.0000 1.0000
26.0400 270.0000 1.0000
26.0600 292.0000 1.0000
26.0800 246.0000 1.0000
26.1000 296.0000 1.0000
26.1200 253.0000 1.0000
26.1400 291.0000 1.0000
26.1600 297.0000 1.0000
26.1800 244.0000 1.0000
26.2000 284.0000 1.0000
26.2200 288.0000 1.0000
26.2400 264.0000 1.0000
26.2600 261.0000 1.0000
26.2800 269.0000 1.0000
26.3000 231.0000 1.0000
26.3200 313.0000 1.0000
26.3400 278.0000 1.0000
26.3600 267.0000 1.0000
26.3800 297.0000 1.0000
26.4000 276.0000 1.0000
26.4200 273.0000 1.0000
26.4400 254.0000 1.0000
26.4600 292.0000 1.0000
26.4800 269.0000 1.0000
26.5000 285.0000 1.0000
26.5200 277.0000 1.0000
26.5400 316.0000 1.0000
26.5600 318.0000 1.0000
26.5800 315.0000 1.0000
26.6000 291.0000 1.0000
26.6200 325.0000 1.0000
26.6400 301.0000 1.0000
26.6600 308.0000 1.0000
26.6800 310.0000 1.0000
26.7000 293.0000 1.0000
26.7200 289.0000 1.0000
26.7400 280.0000 1.0000
26.7600 265.0000 1.0000
26.7800 286.0000 1.0000
26.8000 258.0000 1.0000
26.8200 278.0000 1.0000
26.8400 314.0000 1.0000
26.8600 288.0000 1.0000
26.8800 269.0000 1.0000
26.9000 264.0000 1.0000
26.9200 260.0000 1.0000
26.9400 260.0000 1.0000
26.9600 290.0000 1.0000
26.9800 246.0000 1.0000
27.0000 273.0000 1.0000
27.0200 246.0000 1.0000
27.0400 292.0000 1.0000
27.0600 293.0000 1.0000
27.0800 283.0000 1.0000
27.1000 277.0000 1.0000
27.1200 267.0000 1.0000
27.1400 276.0000 1.0000
27.1600 288.0000 1.0000
27.1800 272.0000 1.0000
27.2000 303.0000 1.0000
27.2200 295.0000 1.0000
27.2400 251.0000 1.0000
27.2600 295.0000 1.0000
27.2800 261.0000 1.0000
27.3000 250.0000 1.0000
27.3200 280.0000 1.0000
27.3400 296.0000 1.0000
27.3600 281.0000 1.0000
27.3800 293.0000 1.0000
27.4000 248.0000 1.0000
27.4200 263.0000 1.0000
27.4400 246.0000 1.0000
27.4600 263.0000 1.0000
27.4800 290.0000 1.0000
27.5000 303.0000 1.0000
27.5200 285.0000 1.0000
27.5400 251.0000 1.0000
27.5600 240.0000 1.0000
27.5800 293.0000 1.0000
27.6000 259.0000 1.0000
27.6200 284.0000 1.0000
27.6400 301.0000 1.0000
27.6600 289.0000 1.0000
27.6800 289.0000 1.0000
27.7000 244.0000 1.0000
27.7200 297.0000 1.0000
27.7400 293.0000 1.0000
27.7600 278.0000 1.0000
27.7800 259.0000 1.0000
27.8000 265.0000 1.0000
27.8200 274.0000 1.0000
27.8400 295.0000 1.0000
27.8600 288.0000 1.0000
27.8800 266.0000 1.0000
27.9000 245.0000 1.0000
27.9200 278.0000 1.0000
27.9400 281.0000 1.0000
27.9600 282.0000 1.0000
27.9800 274.0000 1.0000
28.0000 276.0000 1.0000
28.0200 287.0000 1.0000
28.0400 299.0000 1.0000
28.0600 269.0000 1.0000
28.0800 279.0000 1.0000
28.1000 259.0000 1.0000
28.1200 262.0000 1.0000
28.1400 315.0000 1.0000
28.1600 280.0000 1.0000
28.1800 267.0000 1.0000
28.2000 268.0000 1.0000
28.2200 258.0000 1.0000
28.2400 258.0000 1.0000
28.2600 277.0000 1.0000
28.2800 274.0000 1.0000
28.3000 306.0000 1.0000
28.3200 278.0000 1.0000
28.3400 276.0000 1.0000
28.3600 258.0000 1.0000
28.3800 285.0000 1.0000
28.4000 266.0000 1.0000
28.4200 254.0000 1.0000
28.4400 300.0000 1.0000
28.4600 284.0000 1.0000
28.4800 251.0000 1.0000
28.5000 279.0000 1.0000
28.5200 271.0000 1.0000
28.5400 272.0000 1.0000
28.5600 259.0000 1.0000
28.5800 292.0000 1.0000
28.6000 297.0000 1.0000
28.6200 276.0000 1.0000
28.6400 274.0000 1.0000
28.6600 266.0000 1.0000
28.6800 260.0000 1.0000
28.7000 282.0000 1.0000
28.7200 259.0000 1.0000
28.7400 270.0000 1.0000
28.7600 237.0000 1.0000
28.7800 259.0000 1.0000
28.8000 269.0000 1.0000
28.8200 285.0000 1.0000
28.8400 297.0000 1.0000
28.8600 300.0000 1.0000
28.8800 262.0000 1.0000
28.9000 289.0000 1.0000
28.9200 276.0000 1.0000
28.9400 280.0000 1.0000
28.9600 275.0000 1.0000
28.9800 278.0000 1.0000
29.0000 248.0000 1.0000
29.0200 287.0000 1.0000
29.0400 292.0000 1.0000
29.0600 263.0000 1.0000
29.0800 266.0000 1.0000
29.1000 267.0000 1.0000
29.1200 270.0000 1.0000
29.1400 260.0000 1.0000
29.1600 287.0000 1.0000
29.1800 291.0000 1.0000
29.2000 268.0000 1.0000
29.2200 269.0000 1.0000
29.2400 286.0000 1.0000
29.2600 254.0000 1.0000
29.2800 291.0000 1.0000
29.3000 265.0000 1.0000
29.3200 284.0000 1.0000
29.3400 236.0000 1.0000
29.3600 292.0000 1.0000
29.3800 278.0000 1.0000
29.4000 303.0000 1.0000
29.4200 258.0000 1.0000
29.4400 262.0000 1.0000
29.4600 273.0000 1.0000
29.4800 286.0000 1.0000
29.5000 279.0000 1.0000
29.5200 285.0000 1.0000
29.5400 283.0000 1.0000
29.5600 274.0000 1.0000
29.5800 271.0000 1.0000
29.6000 278.0000 1.0000
29.6200 273.0000 1.0000
29.6400 273.0000 1.0000
29.6600 288.0000 1.0000
29.6800 279.0000 1.0000
29.7000 276.0000 1.0000
29.7200 280.0000 1.0000
29.7400 265.0000 1.0000
29.7600 284.0000 1.0000
29.7800 297.0000 1.0000
29.8000 295.0000 1.0000
29.8200 300.0000 1.0000
29.8400 295.0000 1.0000
29.8600 282.0000 1.0000
29.8800 267.0000 1.0000
29.9000 278.0000 1.0000
29.9200 277.0000 1.0000
29.9400 292.0000 1.0000
29.9600 248.0000 1.0000
29.9800 276.0000 1.0000
30.0000 301.0000 1.0000
30.0200 268.0000 1.0000
30.0400 280.0000 1.0000
30.0600 278.0000 1.0000
30.0800 294.0000 1.0000
30.1000 284.0000 1.0000
30.1200 298.0000 1.0000
30.1400 281.0000 1.0000
30.1600 290.0000 1.0000
30.1800 261.0000 1.0000
30.2000 290.0000 1.0000
30.2200 268.0000 1.0000
30.2400 269.0000 1.0000
30.2600 265.0000 1.0000
30.2800 286.0000 1.0000
30.3000 271.0000 1.0000
30.3200 293.0000 1.0000
30.3400 307.0000 1.0000
30.3600 257.0000 1.0000
30.3800 272.0000 1.0000
30.4000 283.0000 1.0000
30.4200 264.0000 1.0000
30.4400 296.0000 1.0000
30.4600 269.0000 1.0000
30.4800 308.0000 1.0000
30.5000 259.0000 1.0000
30.5200 277.0000 1.0000
30.5400 263.0000 1.0000
30.5600 274.0000 1.0000
30.5800 285.0000 1.0000
30.6000 301.0000 1.0000
30.6200 264.0000 1.0000
30.6400 292.0000 1.0000
30.6600 291.0000 1.0000
30.6800 272.0000 1.0000
30.7000 303.0000 1.0000
30.7200 322.0000 1.0000
30.7400 324.0000 1.0000
30.7600 283.0000 1.0000
30.7800 325.0000 1.0000
30.8000 315.0000 1.0000
30.8200 322.0000 1.0000
30.8400 363.0000 1.0000
30.8600 334.0000 1.0000
30.8800 394.0000 1.0000
30.9000 320.0000 1.0000
30.9200 372.0000 1.0000
30.9400 363.0000 1.0000
30.9600 326.0000 1.0000
30.9800 347.0000 1.0000
31.0000 335.0000 1.0000
31.0200 335.0000 1.0000
31.0400 313.0000 1.0000
31.0600 321.0000 1.0000
31.0800 287.0000 1.0000
31.1000 278.0000 1.0000
31.1200 287.0000 1.0000
31.1400 283.0000 1.0000
31.1600 272.0000 1.0000
31.1800 292.0000 1.0000
31.2000 272.0000 1.0000
31.2200 295.0000 1.0000
31.2400 288.0000 1.0000
31.2600 295.0000 1.0000
31.2800 294.0000 1.0000
31.3000 273.0000 1.0000
31.3200 271.0000 1.0000
31.3400 277.0000 1.0000
31.3600 245.0000 1.0000
31.3800 293.0000 1.0000
31.4000 282.0000 1.0000
31.4200 274.0000 1.0000
31.4400 260.0000 1.0000
31.4600 289.0000 1.0000
31.4800 294.0000 1.0000
31.5000 275.0000 1.0000
31.5200 278.0000 1.0000
31.5400 289.0000 1.0000
31.5600 287.0000 1.0000
31.5800 252.0000 1.0000
31.6000 253.0000 1.0000
31.6200 252.0000 1.0000
31.6400 284.0000 1.0000
31.6600 258.0000 1.0000
31.6800 290.0000 1.0000
31.7000 255.0000 1.0000
31.7200 287.0000 1.0000
31.7400 281.0000 1.0000
31.7600 286.0000 1.0000
31.7800 272.0000 1.0000
31.8000 252.0000 1.0000
31.8200 280.0000 1.0000
31.8400 275.0000 1.0000
31.8600 296.0000 1.0000
31.8800 281.0000 1.0000
31.9000 291.0000 1.0000
31.9200 294.0000 1.0000
31.9400 258.0000 1.0000
31.9600 286.0000 1.0000
31.9800 273.0000 1.0000
32.0000 253.0000 1.0000
32.0200 278.0000 1.0000
32.0400 286.0000 1.0000
32.0600 318.0000 1.0000
32.0800 288.0000 1.0000
32.1000 260.0000 1.0000
32.1200 279.0000 1.0000
32.1400 272.0000 1.0000
32.1600 293.0000 1.0000
32.1800 286.0000 1.0000
32.2000 308.0000 1.0000
32.2200 256.0000 1.0000
32.2400 292.0000 1.0000
32.2600 303.0000 1.0000
32.2800 270.0000 1.0000
32.3000 283.0000 1.0000
32.3200 296.0000 1.0000
32.3400 281.0000 1.0000
32.3600 276.0000 1.0000
32.3800 291.0000 1.0000
32.4000 291.0000 1.0000
32.4200 292.0000 1.0000
32.4400 291.0000 1.0000
32.4600 283.0000 1.0000
32.4800 274.0000 1.0000
32.5000 322.0000 1.0000
32.5200 297.0000 1.0000
32.5400 293.0000 1.0000
32.5600 318.0000 1.0000
32.5800 289.0000 1.0000
32.6000 288.0000 1.0000
32.6200 302.0000 1.0000
32.6400 283.0000 1.0000
32.6600 300.0000 1.0000
32.6800 275.0000 1.0000
32.7000 291.0000 1.0000
32.7200 289.0000 1.0000
32.7400 316.0000 1.0000
32.7600 285.0000 1.0000
32.7800 282.0000 1.0000
32.8000 313.0000 1.0000
32.8200 324.0000 1.0000
32.8400 349.0000 1.0000
32.8600 296.0000 1.0000
32.8800 344.0000 1.0000
32.9000 349.0000 1.0000
32.9200 373.0000 1.0000
32.9400 371.0000 1.0000
32.9600 338.0000 1.0000
32.9800 424.0000 1.0000
33.0000 388.0000 1.0000
33.0200 411.0000 1.0000
33.0400 469.0000 1.0000
33.0600 467.0000 1.0000
33.0800 573.0000 1.0000
33.1000 527.0000 1.0000
33.1200 582.0000 1.0000
33.1400 544.0000 1.0000
33.1600 583.0000 1.0000
33.1800 511.0000 1.0000
33.2000 544.0000 1.0000
33.2200 501.0000 1.0000
33.2400 455.0000 1.0000
33.2600 477.0000 1.0000
33.2800 449.0000 1.0000
33.3000 380.0000 1.0000
33.3200 360.0000 1.0000
33.3400 339.0000 1.0000
33.3600 343.0000 1.0000
33.3800 334.0000 1.0000
33.4000 326.0000 1.0000
33.4200 327.0000 1.0000
33.4400 344.0000 1.0000
33.4600 301.0000 1.0000
33.4800 313.0000 1.0000
33.5000 301.0000 1.0000
33.5200 274.0000 1.0000
33.5400 290.0000 1.0000
33.5600 317.0000 1.0000
33.5800 313.0000 1.0000
33.6000 300.0000 1.0000
33.6200 303.0000 1.0000
33.6400 297.0000 1.0000
33.6600 259.0000 1.0000
33.6800 286.0000 1.0000
33.7000 294.0000 1.0000
33.7200 286.0000 1.0000
33.7400 315.0000 1.0000
33.7600 310.0000 1.0000
33.7800 289.0000 1.0000
33.8000 276.0000 1.0000
33.8200 302.0000 1.0000
33.8400 271.0000 1.0000
33.8600 285.0000 1.0000
33.8800 265.0000 1.0000
33.9000 276.0000 1.0000
33.9200 280.0000 1.0000
33.9400 249.0000 1.0000
33.9600 280.0000 1.0000
33.9800 243.0000 1.0000
34.0000 298.0000 1.0000
34.0200 298.0000 1.0000
34.0400 264.0000 1.0000
34.0600 289.0000 1.0000
34.0800 303.0000 1.0000
34.1000 250.0000 1.0000
34.1200 275.0000 1.0000
34.1400 277.0000 1.0000
34.1600 274.0000 1.0000
34.1800 276.0000 1.0000
34.2000 278.0000 1.0000
34.2200 267.0000 1.0000
34.2400 269.0000 1.0000
34.2600 285.0000 1.0000
34.2800 260.0000 1.0000
34.3000 276.0000 1.0000
34.3200 268.0000 1.0000
34.3400 279.0000 1.0000
34.3600 272.0000 1.0000
34.3800 281.0000 1.0000
34.4000 295.0000 1.0000
34.4200 289.0000 1.0000
34.4400 273.0000 1.0000
34.4600 274.0000 1.0000
34.4800 279.0000 1.0000
34.5000 273.0000 1.0000
34.5200 290.0000 1.0000
34.5400 289.0000 1.0000
34.5600 312.0000 1.0000
34.5800 282.0000 1.0000
34.6000 287.0000 1.0000
34.6200 258.0000 1.0000
34.6400 275.0000 1.0000
34.6600 273.0000 1.0000
34.6800 297.0000 1.0000
34.7000 249.0000 1.0000
34.7200 249.0000 1.0000
34.7400 268.0000 1.0000
34.7600 271.0000 1.0000
34.7800 262.0000 1.0000
34.8000 287.0000 1.0000
34.8200 273.0000 1.0000
34.8400 248.0000 1.0000
34.8600 297.0000 1.0000
34.8800 289.0000 1.0000
34.9000 259.0000 1.0000
34.9200 274.0000 1.0000
34.9400 270.0000 1.0000
34.9600 276.0000 1.0000
34.9800 258.0000 1.0000
35.0000 287.0000 1.0000
35.0200 279.0000 1.0000
35.0400 232.0000 1.0000
35.0600 281.0000 1.0000
35.0800 293.0000 1.0000
35.1000 284.0000 1.0000
35.1200 296.0000 1.0000
35.1400 301.0000 1.0000
35.1600 284.0000 1.0000
35.1800 298.0000 1.0000
35.2000 324.0000 1.0000
35.2200 279.0000 1.0000
35.2400 304.0000 1.0000
35.2600 284.0000 1.0000
35.2800 313.0000 1.0000
35.3000 292.0000 1.0000
35.3200 295.0000 1.0000
35.3400 325.0000 1.0000
35.3600 276.0000 1.0000
35.3800 318.0000 1.0000
35.4000 275.0000 1.0000
35.4200 321.0000 1.0000
35.4400 308.0000 1.0000
35.4600 300.0000 1.0000
35.4800 337.0000 1.0000
35.5000 351.0000 1.0000
35.5200 425.0000 1.0000
35.5400 389.0000 1.0000
35.5600 409.0000 1.0000
35.5800 394.0000 1.0000
35.6000 429.0000 1.0000
35.6200 396.0000 1.0000
35.6400 402.0000 1.0000
35.6600 388.0000 1.0000
35.6800 387.0000 1.0000
35.7000 366.0000 1.0000
35.7200 352.0000 1.0000
35.7400 349.0000 1.0000
35.7600 328.0000 1.0000
35.7800 307.0000 1.0000
35.8000 280.0000 1.0000
35.8200 296.0000 1.0000
35.8400 301.0000 1.0000
35.8600 277.0000 1.0000
35.8800 279.0000 1.0000
35.9000 280.0000 1.0000
35.9200 286.0000 1.0000
35.9400 279.0000 1.0000
35.9600 270.0000 1.0000
35.9800 285.0000 1.0000
36.0000 292.0000 1.0000
36.0200 283.0000 1.0000
36.0400 276.0000 1.0000
36.0600 252.0000 1.0000
36.0800 292.0000 1.0000
36.1000 288.0000 1.0000
36.1200 278.0000 1.0000
36.1400 280.0000 1.0000
36.1600 265.0000 1.0000
36.1800 274.0000 1.0000
36.2000 271.0000 1.0000
36.2200 284.0000 1.0000
36.2400 317.0000 1.0000
36.2600 268.0000 1.0000
36.2800 274.0000 1.0000
36.3000 283.0000 1.0000
36.3200 266.0000 1.0000
36.3400 249.0000 1.0000
36.3600 297.0000 1.0000
36.3800 292.0000 1.0000
36.4000 289.0000 1.0000
36.4200 250.0000 1.0000
36.4400 321.0000 1.0000
36.4600 291.0000 1.0000
36.4800 287.0000 1.0000
36.5000 296.0000 1.0000
36.5200 258.0000 1.0000
36.5400 260.0000 1.0000
36.5600 263.0000 1.0000
36.5800 270.0000 1.0000
36.6000 277.0000 1.0000
36.6200 232.0000 1.0000
36.6400 312.0000 1.0000
36.6600 244.0000 1.0000
36.6800 288.0000 1.0000
36.7000 263.0000 1.0000
36.7200 291.0000 1.0000
36.7400 278.0000 1.0000
36.7600 242.0000 1.0000
36.7800 290.0000 1.0000
36.8000 307.0000 1.0000
36.8200 283.0000 1.0000
36.8400 263.0000 1.0000
36.8600 261.0000 1.0000
36.8800 259.0000 1.0000
36.9000 252.0000 1.0000
36.9200 299.0000 1.0000
36.9400 249.0000 1.0000
36.9600 250.0000 1.0000
36.9800 293.0000 1.0000
37.0000 279.0000 1.0000
37.0200 270.0000 1.0000
37.0400 306.0000 1.0000
37.0600 277.0000 1.0000
37.0800 287.0000 1.0000
37.1000 269.0000 1.0000
37.1200 287.0000 1.0000
37.1400 289.0000 1.0000
37.1600 246.0000 1.0000
37.1800 294.0000 1.0000
37.2000 274.0000 1.0000
37.2200 289.0000 1.0000
37.2400 274.0000 1.0000
37.2600 295.0000 1.0000
37.2800 286.0000 1.0000
37.3000 286.0000 1.0000
37.3200 262.0000 1.0000
37.3400 262.0000 1.0000
37.3600 266.0000 1.0000
37.3800 256.0000 1.0000
37.4000 268.0000 1.0000
37.4200 285.0000 1.0000
37.4400 272.0000 1.0000
37.4600 272.0000 1.0000
37.4800 272.0000 1.0000
37.5000 262.0000 1.0000
37.5200 266.0000 1.0000
37.5400 273.0000 1.0000
37.5600 278.0000 1.0000
37.5800 254.0000 1.0000
37.6000 272.0000 1.0000
37.6200 250.0000 1.0000
37.6400 288.0000 1.0000
37.6600 291.0000 1.0000
37.6800 290.0000 1.0000
37.7000 272.0000 1.0000
37.7200 284.0000 1.0000
37.7400 300.0000 1.0000
37.7600 278.0000 1.0000
37.7800 281.0000 1.0000
37.8000 272.0000 1.0000
37.8200 301.0000 1.0000
37.8400 264.0000 1.0000
37.8600 302.0000 1.0000
37.8800 284.0000 1.0000
37.9000 286.0000 1.0000
37.9200 308.0000 1.0000
37.9400 288.0000 1.0000
37.9600 272.0000 1.0000
37.9800 304.0000 1.0000
38.0000 290.0000 1.0000
38.0200 260.0000 1.0000
38.0400 292.0000 1.0000
38.0600 249.0000 1.0000
38.0800 267.0000 1.0000
38.1000 262.0000 1.0000
38.1200 277.0000 1.0000
38.1400 275.0000 1.0000
38.1600 274.0000 1.0000
38.1800 275.0000 1.0000
38.2000 277.0000 1.0000
38.2200 300.0000 1.0000
38.2400 273.0000 1.0000
38.2600 302.0000 1.0000
38.2800 291.0000 1.0000
38.3000 280.0000 1.0000
38.3200 260.0000 1.0000
38.3400 284.0000 1.0000
38.3600 283.0000 1.0000
38.3800 250.0000 1.0000
38.4000 273.0000 1.0000
38.4200 300.0000 1.0000
38.4400 266.0000 1.0000
38.4600 255.0000 1.0000
38.4800 279.0000 1.0000
38.5000 270.0000 1.0000
38.5200 285.0000 1.0000
38.5400 284.0000 1.0000
38.5600 285.0000 1.0000
38.5800 278.0000 1.0000
38.6000 249.0000 1.0000
38.6200 277.0000 1.0000
38.6400 286.0000 1.0000
38.6600 265.0000 1.0000
38.6800 282.0000 1.0000
38.7000 281.0000 1.0000
38.7200 322.0000 1.0000
38.7400 265.0000 1.0000
38.7600 279.0000 1.0000
38.7800 271.0000 1.0000
38.8000 285.0000 1.0000
38.8200 288.0000 1.0000
38.8400 267.0000 1.0000
38.8600 259.0000 1.0000
38.8800 276.0000 1.0000
38.9000 270.0000 1.0000
38.9200 266.0000 1.0000
38.9400 269.0000 1.0000
38.9600 288.0000 1.0000
38.9800 316.0000 1.0000
39.0000 256.0000 1.0000
39.0200 313.0000 1.0000
39.0400 282.0000 1.0000
39.0600 297.0000 1.0000
39.0800 278.0000 1.0000
39.1000 291.0000 1.0000
39.1200 282.0000 1.0000
39.1400 271.0000 1.0000
39.1600 291.0000 1.0000
39.1800 266.0000 1.0000
39.2000 309.0000 1.0000
39.2200 290.0000 1.0000
39.2400 293.0000 1.0000
39.2600 288.0000 1.0000
39.2800 298.0000 1.0000
39.3000 259.0000 1.0000
39.3200 294.0000 1.0000
39.3400 267.0000 1.0000
39.3600 322.0000 1.0000
39.3800 278.0000 1.0000
39.4000 303.0000 1.0000
39.4200 313.0000 1.0000
39.4400 257.0000 1.0000
39.4600 290.0000 1.0000
39.4800 259.0000 1.0000
39.5000 269.0000 1.0000
39.5200 275.0000 1.0000
39.5400 284.0000 1.0000
39.5600 266.0000 1.0000
39.5800 272.0000 1.0000
39.6000 304.0000 1.0000
39.6200 284.0000 1.0000
39.6400 295.0000 1.0000
39.6600 282.0000 1.0000
39.6800 303.0000 1.0000
39.7000 309.0000 1.0000
39.7200 248.0000 1.0000
39.7400 259.0000 1.0000
39.7600 292.0000 1.0000
39.7800 260.0000 1.0000
39.8000 267.0000 1.0000
39.8200 306.0000 1.0000
39.8400 321.0000 1.0000
39.8600 264.0000 1.0000
39.8800 239.0000 1.0000
39.9000 260.0000 1.0000
39.9200 260.0000 1.0000
39.9400 287.0000 1.0000
39.9600 275.0000 1.0000
39.9800 319.0000 1.0000
40.0000 224.0000 1.0000
40.0200 284.0000 1.0000
40.0400 238.0000 1.0000
40.0600 278.0000 1.0000
40.0800 284.0000 1.0000
40.1000 283.0000 1.0000
40.1200 272.0000 1.0000
40.1400 262.0000 1.0000
40.1600 311.0000 1.0000
40.1800 300.0000 1.0000
40.2000 290.0000 1.0000
40.2200 293.0000 1.0000
40.2400 292.0000 1.0000
40.2600 275.0000 1.0000
40.2800 315.0000 1.0000
40.3000 274.0000 1.0000
40.3200 275.0000 1.0000
40.3400 291.0000 1.0000
40.3600 273.0000 1.0000
40.3800 272.0000 1.0000
40.4000 294.0000 1.0000
40.4200 278.0000 1.0000
40.4400 281.0000 1.0000
40.4600 268.0000 1.0000
40.4800 258.0000 1.0000
40.5000 249.0000 1.0000
40.5200 302.0000 1.0000
40.5400 267.0000 1.0000
40.5600 306.0000 1.0000
40.5800 293.0000 1.0000
40.6000 263.0000 1.0000
40.6200 297.0000 1.0000
40.6400 290.0000 1.0000
40.6600 278.0000 1.0000
40.6800 311.0000 1.0000
40.7000 322.0000 1.0000
40.7200 278.0000 1.0000
40.7400 303.0000 1.0000
40.7600 343.0000 1.0000
40.7800 306.0000 1.0000
40.8000 346.0000 1.0000
40.8200 312.0000 1.0000
40.8400 325.0000 1.0000
40.8600 335.0000 1.0000
40.8800 345.0000 1.0000
40.9000 324.0000 1.0000
40.9200 333.0000 1.0000
40.9400 312.0000 1.0000
40.9600 318.0000 1.0000
40.9800 307.0000 1.0000
41.0000 301.0000 1.0000
41.0200 288.0000 1.0000
41.0400 276.0000 1.0000
41.0600 314.0000 1.0000
41.0800 330.0000 1.0000
41.1000 298.0000 1.0000
41.1200 302.0000 1.0000
41.1400 294.0000 1.0000
41.1600 297.0000 1.0000
41.1800 271.0000 1.0000
41.2000 327.0000 1.0000
41.2200 279.0000 1.0000
41.2400 276.0000 1.0000
41.2600 320.0000 1.0000
41.2800 262.0000 1.0000
41.3000 285.0000 1.0000
41.3200 263.0000 1.0000
41.3400 274.0000 1.0000
41.3600 280.0000 1.0000
41.3800 271.0000 1.0000
41.4000 286.0000 1.0000
41.4200 278.0000 1.0000
41.4400 274.0000 1.0000
41.4600 294.0000 1.0000
41.4800 299.0000 1.0000
41.5000 303.0000 1.0000
41.5200 274.0000 1.0000
41.5400 282.0000 1.0000
41.5600 265.0000 1.0000
41.5800 271.0000 1.0000
41.6000 297.0000 1.0000
41.6200 275.0000 1.0000
41.6400 293.0000 1.0000
41.6600 256.0000 1.0000
41.6800 262.0000 1.0000
41.7000 266.0000 1.0000
41.7200 272.0000 1.0000
41.7400 282.0000 1.0000
41.7600 268.0000 1.0000
41.7800 259.0000 1.0000
41.8000 287.0000 1.0000
41.8200 255.0000 1.0000
41.8400 306.0000 1.0000
41.8600 260.0000 1.0000
41.8800 283.0000 1.0000
41.9000 254.0000 1.0000
41.9200 293.0000 1.0000
41.9400 319.0000 1.0000
41.9600 279.0000 1.0000
41.9800 256.0000 1.0000
42.0000 279.0000 1.0000
42.0200 290.0000 1.0000
42.0400 298.0000 1.0000
42.0600 293.0000 1.0000
42.0800 284.0000 1.0000
42.1000 294.0000 1.0000
42.1200 292.0000 1.0000
42.1400 269.0000 1.0000
42.1600 273.0000 1.0000
42.1800 288.0000 1.0000
42.2000 293.0000 1.0000
42.2200 304.0000 1.0000
42.2400 283.0000 1.0000
42.2600 294.0000 1.0000
42.2800 287.0000 1.0000
42.3000 261.0000 1.0000
42.3200 264.0000 1.0000
42.3400 299.0000 1.0000
42.3600 256.0000 1.0000
42.3800 285.0000 1.0000
42.4000 292.0000 1.0000
42.4200 277.0000 1.0000
42.4400 304.0000 1.0000
42.4600 251.0000 1.0000
42.4800 284.0000 1.0000
42.5000 274.0000 1.0000
42.5200 280.0000 1.0000
42.5400 252.0000 1.0000
42.5600 275.0000 1.0000
42.5800 308.0000 1.0000
42.6000 305.0000 1.0000
42.6200 309.0000 1.0000
42.6400 278.0000 1.0000
42.6600 275.0000 1.0000
42.6800 272.0000 1.0000
42.7000 276.0000 1.0000
42.7200 284.0000 1.0000
42.7400 272.0000 1.0000
42.7600 291.0000 1.0000
42.7800 282.0000 1.0000
42.8000 265.0000 1.0000
42.8200 279.0000 1.0000
42.8400 288.0000 1.0000
42.8600 263.0000 1.0000
42.8800 276.0000 1.0000
42.9000 280.0000 1.0000
42.9200 281.0000 1.0000
42.9400 282.0000 1.0000
42.9600 289.0000 1.0000
42.9800 271.0000 1.0000
43.0000 262.0000 1.0000
43.0200 288.0000 1.0000
43.0400 262.0000 1.0000
43.0600 298.0000 1.0000
43.0800 278.0000 1.0000
43.1000 287.0000 1.0000
43.1200 289.0000 1.0000
43.1400 294.0000 1.0000
43.1600 258.0000 1.0000
43.1800 289.0000 1.0000
43.2000 268.0000 1.0000
43.2200 281.0000 1.0000
43.2400 283.0000 1.0000
43.2600 279.0000 1.0000
43.2800 293.0000 1.0000
43.3000 268.0000 1.0000
43.3200 269.0000 1.0000
43.3400 260.0000 1.0000
43.3600 275.0000 1.0000
43.3800 290.0000 1.0000
43.4000 275.0000 1.0000
43.4200 277.0000 1.0000
43.4400 268.0000 1.0000
43.4600 272.0000 1.0000
43.4800 272.0000 1.0000
43.5000 299.0000 1.0000
43.5200 265.0000 1.0000
43.5400 272.0000 1.0000
43.5600 291.0000 1.0000
43.5800 276.0000 1.0000
43.6000 266.0000 1.0000
43.6200 278.0000 1.0000
43.6400 285.0000 1.0000
43.6600 297.0000 1.0000
43.6800 235.0000 1.0000
43.7000 267.0000 1.0000
43.7200 281.0000 1.0000
43.7400 268.0000 1.0000
43.7600 268.0000 1.0000
43.7800 291.0000 1.0000
43.8000 281.0000 1.0000
43.8200 280.0000 1.0000
43.8400 294.0000 1.0000
43.8600 256.0000 1.0000
43.8800 279.0000 1.0000
43.9000 315.0000 1.0000
43.9200 289.0000 1.0000
43.9400 293.0000 1.0000
43.9600 274.0000 1.0000
43.9800 275.0000 1.0000
44.0000 273.0000 1.0000
44.0200 279.0000 1.0000
44.0400 277.0000 1.0000
44.0600 296.0000 1.0000
44.0800 262.0000 1.0000
44.1000 286.0000 1.0000
44.1200 276.0000 1.0000
44.1400 270.0000 1.0000
44.1600 285.0000 1.0000
44.1800 256.0000 1.0000
44.2000 261.0000 1.0000
44.2200 287.0000 1.0000
44.2400 248.0000 1.0000
44.2600 245.0000 1.0000
44.2800 287.0000 1.0000
44.3000 284.0000 1.0000
44.3200 293.0000 1.0000
44.3400 291.0000 1.0000
44.3600 276.0000 1.0000
44.3800 258.0000 1.0000
44.4000 299.0000 1.0000
44.4200 307.0000 1.0000
44.4400 295.0000 1.0000
44.4600 289.0000 1.0000
44.4800 282.0000 1.0000
44.5000 277.0000 1.0000
44.5200 288.0000 1.0000
44.5400 273.0000 1.0000
44.5600 280.0000 1.0000
44.5800 274.0000 1.0000
44.6000 275.0000 1.0000
44.6200 305.0000 1.0000
44.6400 270.0000 1.0000
44.6600 263.0000 1.0000
44.6800 291.0000 1.0000
44.7000 259.0000 1.0000
44.7200 282.0000 1.0000
44.7400 276.0000 1.0000
44.7600 294.0000 1.0000
44.7800 246.0000 1.0000
44.8000 276.0000 1.0000
44.8200 276.0000 1.0000
44.8400 279.0000 1.0000
44.8600 297.0000 1.0000
44.8800 283.0000 1.0000
44.9000 271.0000 1.0000
44.9200 282.0000 1.0000
44.9400 292.0000 1.0000
44.9600 266.0000 1.0000
44.9800 259.0000 1.0000
45.0000 265.0000 1.0000
45.0200 274.0000 1.0000
45.0400 284.0000 1.0000
45.0600 286.0000 1.0000
45.0800 275.0000 1.0000
45.1000 241.0000 1.0000
45.1200 258.0000 1.0000
45.1400 278.0000 1.0000
45.1600 250.0000 1.0000
45.1800 285.0000 1.0000
45.2000 241.0000 1.0000
45.2200 284.0000 1.0000
45.2400 280.0000 1.0000
45.2600 266.0000 1.0000
45.2800 263.0000 1.0000
45.3000 275.0000 1.0000
45.3200 270.0000 1.0000
45.3400 270.0000 1.0000
45.3600 292.0000 1.0000
45.3800 280.0000 1.0000
45.4000 285.0000 1.0000
45.4200 281.0000 1.0000
45.4400 266.0000 1.0000
45.4600 282.0000 1.0000
45.4800 263.0000 1.0000
45.5000 284.0000 1.0000
45.5200 282.0000 1.0000
45.5400 269.0000 1.0000
45.5600 266.0000 1.0000
45.5800 283.0000 1.0000
45.6000 252.0000 1.0000
45.6200 290.0000 1.0000
45.6400 242.0000 1.0000
45.6600 302.0000 1.0000
45.6800 270.0000 1.0000
45.7000 260.0000 1.0000
45.7200 256.0000 1.0000
45.7400 275.0000 1.0000
45.7600 287.0000 1.0000
45.7800 273.0000 1.0000
45.8000 247.0000 1.0000
45.8200 291.0000 1.0000
45.8400 277.0000 1.0000
45.8600 279.0000 1.0000
45.8800 254.0000 1.0000
45.9000 328.0000 1.0000
45.9200 284.0000 1.0000
45.9400 289.0000 1.0000
45.9600 286.0000 1.0000
45.9800 292.0000 1.0000
46.0000 289.0000 1.0000
46.0200 286.0000 1.0000
46.0400 257.0000 1.0000
46.0600 286.0000 1.0000
46.0800 270.0000 1.0000
46.1000 284.0000 1.0000
46.1200 272.0000 1.0000
46.1400 272.0000 1.0000
46.1600 256.0000 1.0000
46.1800 249.0000 1.0000
46.2000 287.0000 1.0000
46.2200 280.0000 1.0000
46.2400 291.0000 1.0000
46.2600 293.0000 1.0000
46.2800 273.0000 1.0000
46.3000 254.0000 1.0000
46.3200 259.0000 1.0000
46.3400 294.0000 1.0000
46.3600 265.0000 1.0000
46.3800 279.0000 1.0000
46.4000 288.0000 1.0000
46.4200 283.0000 1.0000
46.4400 274.0000 1.0000
46.4600 305.0000 1.0000
46.4800 272.0000 1.0000
46.5000 254.0000 1.0000
46.5200 334.0000 1.0000
46.5400 290.0000 1.0000
46.5600 293.0000 1.0000
46.5800 284.0000 1.0000
46.6000 286.0000 1.0000
46.6200 257.0000 1.0000
46.6400 271.0000 1.0000
46.6600 263.0000 1.0000
46.6800 260.0000 1.0000
46.7000 301.0000 1.0000
46.7200 315.0000 1.0000
46.7400 292.0000 1.0000
46.7600 277.0000 1.0000
46.7800 291.0000 1.0000
46.8000 274.0000 1.0000
46.8200 268.0000 1.0000
46.8400 284.0000 1.0000
46.8600 265.0000 1.0000
46.8800 278.0000 1.0000
46.9000 270.0000 1.0000
46.9200 275.0000 1.0000
46.9400 298.0000 1.0000
46.9600 284.0000 1.0000
46.9800 288.0000 1.0000
47.0000 269.0000 1.0000
47.0200 292.0000 1.0000
47.0400 281.0000 1.0000
47.0600 287.0000 1.0000
47.0800 257.0000 1.0000
47.1000 295.0000 1.0000
47.1200 262.0000 1.0000
47.1400 277.0000 1.0000
47.1600 284.0000 1.0000
47.1800 283.0000 1.0000
47.2000 271.0000 1.0000
47.2200 264.0000 1.0000
47.2400 250.0000 1.0000
47.2600 266.0000 1.0000
47.2800 272.0000 1.0000
47.3000 267.0000 1.0000
47.3200 260.0000 1.0000
47.3400 292.0000 1.0000
47.3600 289.0000 1.0000
47.3800 249.0000 1.0000
47.4000 251.0000 1.0000
47.4200 287.0000 1.0000
47.4400 273.0000 1.0000
47.4600 267.0000 1.0000
47.4800 289.0000 1.0000
47.5000 261.0000 1.0000
47.5200 275.0000 1.0000
47.5400 284.0000 1.0000
47.5600 271.0000 1.0000
47.5800 310.0000 1.0000
47.6000 297.0000 1.0000
47.6200 299.0000 1.0000
47.6400 333.0000 1.0000
47.6600 304.0000 1.0000
47.6800 324.0000 1.0000
47.7000 258.0000 1.0000
47.7200 283.0000 1.0000
47.7400 265.0000 1.0000
47.7600 265.0000 1.0000
47.7800 272.0000 1.0000
47.8000 267.0000 1.0000
47.8200 262.0000 1.0000
47.8400 262.0000 1.0000
47.8600 276.0000 1.0000
47.8800 265.0000 1.0000
47.9000 265.0000 1.0000
47.9200 309.0000 1.0000
47.9400 288.0000 1.0000
47.9600 259.0000 1.0000
47.9800 289.0000 1.0000
48.0000 263.0000 1.0000
48.0200 313.0000 1.0000
48.0400 275.0000 1.0000
48.0600 266.0000 1.0000
48.0800 291.0000 1.0000
48.1000 266.0000 1.0000
48.1200 264.0000 1.0000
48.1400 288.0000 1.0000
48.1600 280.0000 1.0000
48.1800 270.0000 1.0000
48.2000 296.0000 1.0000
48.2200 258.0000 1.0000
48.2400 264.0000 1.0000
48.2600 292.0000 1.0000
48.2800 288.0000 1.0000
48.3000 305.0000 1.0000
48.3200 271.0000 1.0000
48.3400 282.0000 1.0000
48.3600 291.0000 1.0000
48.3800 271.0000 1.0000
48.4000 310.0000 1.0000
48.4200 305.0000 1.0000
48.4400 293.0000 1.0000
48.4600 285.0000 1.0000
48.4800 289.0000 1.0000
48.5000 271.0000 1.0000
48.5200 305.0000 1.0000
48.5400 290.0000 1.0000
48.5600 302.0000 1.0000
48.5800 269.0000 1.0000
48.6000 267.0000 1.0000
48.6200 286.0000 1.0000
48.6400 255.0000 1.0000
48.6600 279.0000 1.0000
48.6800 292.0000 1.0000
48.7000 274.0000 1.0000
48.7200 298.0000 1.0000
48.7400 260.0000 1.0000
48.7600 287.0000 1.0000
48.7800 266.0000 1.0000
48.8000 296.0000 1.0000
48.8200 277.0000 1.0000
48.8400 289.0000 1.0000
48.8600 306.0000 1.0000
48.8800 249.0000 1.0000
48.9000 291.0000 1.0000
48.9200 288.0000 1.0000
48.9400 274.0000 1.0000
48.9600 274.0000 1.0000
48.9800 272.0000 1.0000
49.0000 296.0000 1.0000
49.0200 295.0000 1.0000
49.0400 280.0000 1.0000
49.0600 259.0000 1.0000
49.0800 295.0000 1.0000
49.1000 296.0000 1.0000
49.1200 300.0000 1.0000
49.1400 289.0000 1.0000
49.1600 284.0000 1.0000
49.1800 278.0000 1.0000
49.2000 295.0000 1.0000
49.2200 300.0000 1.0000
49.2400 302.0000 1.0000
49.2600 324.0000 1.0000
49.2800 313.0000 1.0000
49.3000 319.0000 1.0000
49.3200 314.0000 1.0000
49.3400 322.0000 1.0000
49.3600 349.0000 1.0000
49.3800 368.0000 1.0000
49.4000 321.0000 1.0000
49.4200 333.0000 1.0000
49.4400 358.0000 1.0000
49.4600 366.0000 1.0000
49.4800 316.0000 1.0000
49.5000 367.0000 1.0000
49.5200 335.0000 1.0000
49.5400 346.0000 1.0000
49.5600 314.0000 1.0000
49.5800 335.0000 1.0000
49.6000 324.0000 1.0000
49.6200 295.0000 1.0000
49.6400 297.0000 1.0000
49.6600 294.0000 1.0000
49.6800 316.0000 1.0000
49.7000 287.0000 1.0000
49.7200 307.0000 1.0000
49.7400 310.0000 1.0000
49.7600 266.0000 1.0000
49.7800 272.0000 1.0000
49.8000 291.0000 1.0000
49.8200 258.0000 1.0000
49.8400 289.0000 1.0000
49.8600 287.0000 1.0000
49.8800 253.0000 1.0000
49.9000 305.0000 1.0000
49.9200 282.0000 1.0000
49.9400 297.0000 1.0000
49.9600 287.0000 1.0000
49.9800 280.0000 1.0000
50.0000 275.0000 1.0000
50.0200 265.0000 1.0000
50.0400 305.0000 1.0000
50.0600 262.0000 1.0000
50.0800 277.0000 1.0000
50.1000 267.0000 1.0000
50.1200 286.0000 1.0000
50.1400 267.0000 1.0000
50.1600 290.0000 1.0000
50.1800 295.0000 1.0000
50.2000 297.0000 1.0000
50.2200 268.0000 1.0000
50.2400 275.0000 1.0000
50.2600 275.0000 1.0000
50.2800 310.0000 1.0000
50.3000 281.0000 1.0000
50.3200 262.0000 1.0000
50.3400 269.0000 1.0000
50.3600 278.0000 1.0000
50.3800 296.0000 1.0000
50.4000 281.0000 1.0000
50.4200 300.0000 1.0000
50.4400 304.0000 1.0000
50.4600 282.0000 1.0000
50.4800 286.0000 1.0000
50.5000 304.0000 1.0000
50.5200 298.0000 1.0000
50.5400 301.0000 1.0000
50.5600 281.0000 1.0000
50.5800 318.0000 1.0000
50.6000 275.0000 1.0000
50.6200 299.0000 1.0000
50.6400 293.0000 1.0000
50.6600 281.0000 1.0000
50.6800 291.0000 1.0000
50.7000 287.0000 1.0000
50.7200 298.0000 1.0000
50.7400 263.0000 1.0000
50.7600 281.0000 1.0000
50.7800 284.0000 1.0000
50.8000 300.0000 1.0000
50.8200 282.0000 1.0000
50.8400 268.0000 1.0000
50.8600 250.0000 1.0000
50.8800 281.0000 1.0000
50.9000 272.0000 1.0000
50.9200 284.0000 1.0000
50.9400 253.0000 1.0000
50.9600 301.0000 1.0000
50.9800 302.0000 1.0000
51.0000 283.0000 1.0000
51.0200 260.0000 1.0000
51.0400 309.0000 1.0000
51.0600 284.0000 1.0000
51.0800 302.0000 1.0000
51.1000 283.0000 1.0000
51.1200 319.0000 1.0000
51.1400 265.0000 1.0000
51.1600 275.0000 1.0000
51.1800 248.0000 1.0000
51.2000 280.0000 1.0000
51.2200 280.0000 1.0000
51.2400 290.0000 1.0000
51.2600 290.0000 1.0000
51.2800 305.0000 1.0000
51.3000 272.0000 1.0000
51.3200 271.0000 1.0000
51.3400 294.0000 1.0000
51.3600 276.0000 1.0000
51.3800 285.0000 1.0000
51.4000 312.0000 1.0000
51.4200 266.0000 1.0000
51.4400 286.0000 1.0000
51.4600 286.0000 1.0000
51.4800 275.0000 1.0000
51.5000 261.0000 1.0000
51.5200 271.0000 1.0000
51.5400 300.0000 1.0000
51.5600 286.0000 1.0000
51.5800 261.0000 1.0000
51.6000 265.0000 1.0000
51.6200 289.0000 1.0000
51.6400 283.0000 1.0000
51.6600 296.0000 1.0000
51.6800 307.0000 1.0000
51.7000 277.0000 1.0000
51.7200 260.0000 1.0000
51.7400 276.0000 1.0000
51.7600 284.0000 1.0000
51.7800 283.0000 1.0000
51.8000 298.0000 1.0000
51.8200 287.0000 1.0000
51.8400 288.0000 1.0000
51.8600 277.0000 1.0000
51.8800 291.0000 1.0000
51.9000 291.0000 1.0000
51.9200 269.0000 1.0000
51.9400 247.0000 1.0000
51.9600 277.0000 1.0000
51.9800 275.0000 1.0000
52.0000 299.0000 1.0000
52.0200 255.0000 1.0000
52.0400 290.0000 1.0000
52.0600 304.0000 1.0000
52.0800 282.0000 1.0000
52.1000 279.0000 1.0000
52.1200 283.0000 1.0000
52.1400 270.0000 1.0000
52.1600 304.0000 1.0000
52.1800 268.0000 1.0000
52.2000 297.0000 1.0000
52.2200 282.0000 1.0000
52.2400 261.0000 1.0000
52.2600 301.0000 1.0000
52.2800 294.0000 1.0000
52.3000 268.0000 1.0000
52.3200 287.0000 1.0000
52.3400 289.0000 1.0000
52.3600 266.0000 1.0000
52.3800 277.0000 1.0000
52.4000 279.0000 1.0000
52.4200 283.0000 1.0000
52.4400 273.0000 1.0000
52.4600 271.0000 1.0000
52.4800 315.0000 1.0000
52.5000 287.0000 1.0000
52.5200 303.0000 1.0000
52.5400 281.0000 1.0000
52.5600 292.0000 1.0000
52.5800 271.0000 1.0000
52.6000 285.0000 1.0000
52.6200 257.0000 1.0000
52.6400 270.0000 1.0000
52.6600 267.0000 1.0000
52.6800 287.0000 1.0000
52.7000 246.0000 1.0000
52.7200 258.0000 1.0000
52.7400 309.0000 1.0000
52.7600 276.0000 1.0000
52.7800 258.0000 1.0000
52.8000 305.0000 1.0000
52.8200 302.0000 1.0000
52.8400 241.0000 1.0000
52.8600 302.0000 1.0000
52.8800 293.0000 1.0000
52.9000 293.0000 1.0000
52.9200 294.0000 1.0000
52.9400 282.0000 1.0000
52.9600 309.0000 1.0000
52.9800 301.0000 1.0000
53.0000 272.0000 1.0000
53.0200 284.0000 1.0000
53.0400 268.0000 1.0000
53.0600 289.0000 1.0000
53.0800 282.0000 1.0000
53.1000 282.0000 1.0000
53.1200 290.0000 1.0000
53.1400 290.0000 1.0000
53.1600 266.0000 1.0000
53.1800 271.0000 1.0000
53.2000 302.0000 1.0000
53.2200 270.0000 1.0000
53.2400 267.0000 1.0000
53.2600 290.0000 1.0000
53.2800 280.0000 1.0000
53.3000 288.0000 1.0000
53.3200 289.0000 1.0000
53.3400 315.0000 1.0000
53.3600 307.0000 1.0000
53.3800 274.0000 1.0000
53.4000 275.0000 1.0000
53.4200 254.0000 1.0000
53.4400 291.0000 1.0000
53.4600 295.0000 1.0000
53.4800 277.0000 1.0000
53.5000 285.0000 1.0000
53.5200 286.0000 1.0000
53.5400 287.0000 1.0000
53.5600 276.0000 1.0000
53.5800 285.0000 1.0000
53.6000 304.0000 1.0000
53.6200 274.0000 1.0000
53.6400 288.0000 1.0000
53.6600 294.0000 1.0000
53.6800 305.0000 1.0000
53.7000 288.0000 1.0000
53.7200 311.0000 1.0000
53.7400 270.0000 1.0000
53.7600 299.0000 1.0000
53.7800 329.0000 1.0000
53.8000 290.0000 1.0000
53.8200 311.0000 1.0000
53.8400 309.0000 1.0000
53.8600 324.0000 1.0000
53.8800 356.0000 1.0000
53.9000 362.0000 1.0000
53.9200 360.0000 1.0000
53.9400 346.0000 1.0000
53.9600 351.0000 1.0000
53.9800 398.0000 1.0000
54.0000 384.0000 1.0000
54.0200 366.0000 1.0000
54.0400 347.0000 1.0000
54.0600 405.0000 1.0000
54.0800 406.0000 1.0000
54.1000 369.0000 1.0000
54.1200 386.0000 1.0000
54.1400 339.0000 1.0000
54.1600 355.0000 1.0000
54.1800 358.0000 1.0000
54.2000 319.0000 1.0000
54.2200 333.0000 1.0000
54.2400 343.0000 1.0000
54.2600 344.0000 1.0000
54.2800 311.0000 1.0000
54.3000 284.0000 1.0000
54.3200 287.0000 1.0000
54.3400 315.0000 1.0000
54.3600 323.0000 1.0000
54.3800 306.0000 1.0000
54.4000 304.0000 1.0000
54.4200 296.0000 1.0000
54.4400 318.0000 1.0000
54.4600 290.0000 1.0000
54.4800 311.0000 1.0000
54.5000 278.0000 1.0000
54.5200 279.0000 1.0000
54.5400 279.0000 1.0000
54.5600 297.0000 1.0000
54.5800 274.0000 1.0000
54.6000 321.0000 1.0000
54.6200 273.0000 1.0000
54.6400 283.0000 1.0000
54.6600 276.0000 1.0000
54.6800 287.0000 1.0000
54.7000 275.0000 1.0000
54.7200 282.0000 1.0000
54.7400 302.0000 1.0000
54.7600 254.0000 1.0000
54.7800 292.0000 1.0000
54.8000 287.0000 1.0000
54.8200 311.0000 1.0000
54.8400 273.0000 1.0000
54.8600 308.0000 1.0000
54.8800 271.0000 1.0000
54.9000 275.0000 1.0000
54.9200 303.0000 1.0000
54.9400 270.0000 1.0000
54.9600 303.0000 1.0000
54.9800 294.0000 1.0000
55.0000 253.0000 1.0000
55.0200 264.0000 1.0000
55.0400 264.0000 1.0000
55.0600 302.0000 1.0000
55.0800 284.0000 1.0000
55.1000 309.0000 1.0000
55.1200 288.0000 1.0000
55.1400 272.0000 1.0000
55.1600 295.0000 1.0000
55.1800 273.0000 1.0000
55.2000 277.0000 1.0000
55.2200 277.0000 1.0000
55.2400 262.0000 1.0000
55.2600 256.0000 1.0000
55.2800 306.0000 1.0000
55.3000 301.0000 1.0000
55.3200 294.0000 1.0000
55.3400 267.0000 1.0000
55.3600 296.0000 1.0000
55.3800 242.0000 1.0000
55.4000 275.0000 1.0000
55.4200 286.0000 1.0000
55.4400 277.0000 1.0000
55.4600 310.0000 1.0000
55.4800 258.0000 1.0000
55.5000 290.0000 1.0000
55.5200 252.0000 1.0000
55.5400 301.0000 1.0000
55.5600 269.0000 1.0000
55.5800 248.0000 1.0000
55.6000 244.0000 1.0000
55.6200 331.0000 1.0000
55.6400 285.0000 1.0000
55.6600 276.0000 1.0000
55.6800 271.0000 1.0000
55.7000 328.0000 1.0000
55.7200 295.0000 1.0000
55.7400 282.0000 1.0000
55.7600 261.0000 1.0000
55.7800 259.0000 1.0000
55.8000 289.0000 1.0000
55.8200 263.0000 1.0000
55.8400 303.0000 1.0000
55.8600 264.0000 1.0000
55.8800 279.0000 1.0000
55.9000 279.0000 1.0000
55.9200 300.0000 1.0000
55.9400 280.0000 1.0000
55.9600 270.0000 1.0000
55.9800 282.0000 1.0000
56.0000 300.0000 1.0000
56.0200 276.0000 1.0000
56.0400 265.0000 1.0000
56.0600 286.0000 1.0000
56.0800 287.0000 1.0000
56.1000 280.0000 1.0000
56.1200 277.0000 1.0000
56.1400 282.0000 1.0000
56.1600 293.0000 1.0000
56.1800 302.0000 1.0000
56.2000 298.0000 1.0000
56.2200 267.0000 1.0000
56.2400 289.0000 1.0000
56.2600 319.0000 1.0000
56.2800 262.0000 1.0000
56.3000 293.0000 1.0000
56.3200 264.0000 1.0000
56.3400 271.0000 1.0000
56.3600 289.0000 1.0000
56.3800 254.0000 1.0000
56.4000 286.0000 1.0000
56.4200 302.0000 1.0000
56.4400 283.0000 1.0000
56.4600 276.0000 1.0000
56.4800 253.0000 1.0000
56.5000 272.0000 1.0000
56.5200 251.0000 1.0000
56.5400 261.0000 1.0000
56.5600 285.0000 1.0000
56.5800 275.0000 1.0000
56.6000 268.0000 1.0000
56.6200 275.0000 1.0000
56.6400 291.0000 1.0000
56.6600 304.0000 1.0000
56.6800 268.0000 1.0000
56.7000 275.0000 1.0000
56.7200 305.0000 1.0000
56.7400 253.0000 1.0000
56.7600 280.0000 1.0000
56.7800 250.0000 1.0000
56.8000 286.0000 1.0000
56.8200 268.0000 1.0000
56.8400 285.0000 1.0000
56.8600 264.0000 1.0000
56.8800 318.0000 1.0000
56.9000 297.0000 1.0000
56.9200 270.0000 1.0000
56.9400 290.0000 1.0000
56.9600 302.0000 1.0000
56.9800 286.0000 1.0000
57.0000 287.0000 1.0000
57.0200 297.0000 1.0000
57.0400 258.0000 1.0000
57.0600 282.0000 1.0000
57.0800 262.0000 1.0000
57.1000 276.0000 1.0000
57.1200 295.0000 1.0000
57.1400 291.0000 1.0000
57.1600 298.0000 1.0000
57.1800 252.0000 1.0000
57.2000 257.0000 1.0000
57.2200 277.0000 1.0000
57.2400 276.0000 1.0000
57.2600 272.0000 1.0000
57.2800 287.0000 1.0000
57.3000 281.0000 1.0000
57.3200 286.0000 1.0000
57.3400 286.0000 1.0000
57.3600 310.0000 1.0000
57.3800 305.0000 1.0000
57.4000 308.0000 1.0000
57.4200 257.0000 1.0000
57.4400 307.0000 1.0000
57.4600 299.0000 1.0000
57.4800 294.0000 1.0000
57.5000 293.0000 1.0000
57.5200 301.0000 1.0000
57.5400 318.0000 1.0000
57.5600 279.0000 1.0000
57.5800 350.0000 1.0000
57.6000 289.0000 1.0000
57.6200 267.0000 1.0000
57.6400 325.0000 1.0000
57.6600 286.0000 1.0000
57.6800 299.0000 1.0000
57.7000 275.0000 1.0000
57.7200 304.0000 1.0000
57.7400 322.0000 1.0000
57.7600 299.0000 1.0000
57.7800 293.0000 1.0000
57.8000 286.0000 1.0000
57.8200 271.0000 1.0000
57.8400 264.0000 1.0000
57.8600 285.0000 1.0000
57.8800 280.0000 1.0000
57.9000 250.0000 1.0000
57.9200 260.0000 1.0000
57.9400 275.0000 1.0000
57.9600 263.0000 1.0000
57.9800 317.0000 1.0000
58.0000 290.0000 1.0000
58.0200 287.0000 1.0000
58.0400 277.0000 1.0000
58.0600 253.0000 1.0000
58.0800 264.0000 1.0000
58.1000 251.0000 1.0000
58.1200 292.0000 1.0000
58.1400 283.0000 1.0000
58.1600 263.0000 1.0000
58.1800 267.0000 1.0000
58.2000 290.0000 1.0000
58.2200 275.0000 1.0000
58.2400 263.0000 1.0000
58.2600 275.0000 1.0000
58.2800 258.0000 1.0000
58.3000 281.0000 1.0000
58.3200 284.0000 1.0000
58.3400 279.0000 1.0000
58.3600 277.0000 1.0000
58.3800 256.0000 1.0000
58.4000 290.0000 1.0000
58.4200 264.0000 1.0000
58.4400 280.0000 1.0000
58.4600 254.0000 1.0000
58.4800 279.0000 1.0000
58.5000 285.0000 1.0000
58.5200 281.0000 1.0000
58.5400 282.0000 1.0000
58.5600 262.0000 1.0000
58.5800 278.0000 1.0000
58.6000 284.0000 1.0000
58.6200 263.0000 1.0000
58.6400 273.0000 1.0000
58.6600 288.0000 1.0000
58.6800 273.0000 1.0000
58.7000 296.0000 1.0000
58.7200 300.0000 1.0000
58.7400 284.0000 1.0000
58.7600 309.0000 1.0000
58.7800 276.0000 1.0000
58.8000 282.0000 1.0000
58.8200 275.0000 1.0000
58.8400 255.0000 1.0000
58.8600 253.0000 1.0000
58.8800 294.0000 1.0000
58.9000 285.0000 1.0000
58.9200 273.0000 1.0000
58.9400 308.0000 1.0000
58.9600 254.0000 1.0000
58.9800 252.0000 1.0000
59.0000 285.0000 1.0000
59.0200 280.0000 1.0000
59.0400 250.0000 1.0000
59.0600 285.0000 1.0000
59.0800 279.0000 1.0000
59.1000 279.0000 1.0000
59.1200 285.0000 1.0000
59.1400 266.0000 1.0000
59.1600 248.0000 1.0000
59.1800 303.0000 1.0000
59.2000 275.0000 1.0000
59.2200 275.0000 1.0000
59.2400 292.0000 1.0000
59.2600 285.0000 1.0000
59.2800 253.0000 1.0000
59.3000 290.0000 1.0000
59.3200 261.0000 1.0000
59.3400 303.0000 1.0000
59.3600 248.0000 1.0000
59.3800 271.0000 1.0000
59.4000 264.0000 1.0000
59.4200 258.0000 1.0000
59.4400 281.0000 1.0000
59.4600 283.0000 1.0000
59.4800 302.0000 1.0000
59.5000 268.0000 1.0000
59.5200 277.0000 1.0000
59.5400 302.0000 1.0000
59.5600 259.0000 1.0000
59.5800 287.0000 1.0000
59.6000 273.0000 1.0000
59.6200 284.0000 1.0000
59.6400 275.0000 1.0000
59.6600 258.0000 1.0000
59.6800 279.0000 1.0000
59.7000 292.0000 1.0000
59.7200 272.0000 1.0000
59.7400 271.0000 1.0000
59.7600 264.0000 1.0000
59.7800 253.0000 1.0000
59.8000 290.0000 1.0000
59.8200 261.0000 1.0000
59.8400 292.0000 1.0000
59.8600 274.0000 1.0000
59.8800 313.0000 1.0000
59.9000 285.0000 1.0000
59.9200 285.0000 1.0000
59.9400 285.0000 1.0000
59.9600 285.0000 1.0000
59.9800 279.0000 1.0000
60.0000 248.0000 1.0000
60.0200 295.0000 1.0000
60.0400 273.0000 1.0000
60.0600 292.0000 1.0000
60.0800 282.0000 1.0000
60.1000 289.0000 1.0000
60.1200 289.0000 1.0000
60.1400 235.0000 1.0000
60.1600 263.0000 1.0000
60.1800 289.0000 1.0000
60.2000 290.0000 1.0000
60.2200 284.0000 1.0000
60.2400 290.0000 1.0000
60.2600 285.0000 1.0000
60.2800 269.0000 1.0000
60.3000 305.0000 1.0000
60.3200 254.0000 1.0000
60.3400 301.0000 1.0000
60.3600 270.0000 1.0000
60.3800 245.0000 1.0000
60.4000 279.0000 1.0000
60.4200 288.0000 1.0000
60.4400 280.0000 1.0000
60.4600 259.0000 1.0000
60.4800 239.0000 1.0000
60.5000 285.0000 1.0000
60.5200 304.0000 1.0000
60.5400 282.0000 1.0000
60.5600 257.0000 1.0000
60.5800 261.0000 1.0000
60.6000 280.0000 1.0000
60.6200 246.0000 1.0000
60.6400 266.0000 1.0000
60.6600 262.0000 1.0000
60.6800 271.0000 1.0000
60.7000 263.0000 1.0000
60.7200 257.0000 1.0000
60.7400 271.0000 1.0000
60.7600 281.0000 1.0000
60.7800 290.0000 1.0000
60.8000 294.0000 1.0000
60.8200 259.0000 1.0000
60.8400 254.0000 1.0000
60.8600 253.0000 1.0000
60.8800 298.0000 1.0000
60.9000 275.0000 1.0000
60.9200 303.0000 1.0000
60.9400 284.0000 1.0000
60.9600 264.0000 1.0000
60.9800 266.0000 1.0000
61.0000 285.0000 1.0000
61.0200 253.0000 1.0000
61.0400 318.0000 1.0000
61.0600 274.0000 1.0000
61.0800 257.0000 1.0000
61.1000 282.0000 1.0000
61.1200 284.0000 1.0000
61.1400 293.0000 1.0000
61.1600 261.0000 1.0000
61.1800 298.0000 1.0000
61.2000 295.0000 1.0000
61.2200 274.0000 1.0000
61.2400 254.0000 1.0000
61.2600 291.0000 1.0000
61.2800 276.0000 1.0000
61.3000 233.0000 1.0000
61.3200 285.0000 1.0000
61.3400 304.0000 1.0000
61.3600 272.0000 1.0000
61.3800 278.0000 1.0000
61.4000 284.0000 1.0000
61.4200 266.0000 1.0000
61.4400 276.0000 1.0000
61.4600 258.0000 1.0000
61.4800 298.0000 1.0000
61.5000 291.0000 1.0000
61.5200 245.0000 1.0000
61.5400 265.0000 1.0000
61.5600 274.0000 1.0000
61.5800 282.0000 1.0000
61.6000 288.0000 1.0000
61.6200 267.0000 1.0000
61.6400 264.0000 1.0000
61.6600 249.0000 1.0000
61.6800 303.0000 1.0000
61.7000 294.0000 1.0000
61.7200 265.0000 1.0000
61.7400 296.0000 1.0000
61.7600 272.0000 1.0000
61.7800 264.0000 1.0000
61.8000 292.0000 1.0000
61.8200 259.0000 1.0000
61.8400 300.0000 1.0000
61.8600 286.0000 1.0000
61.8800 304.0000 1.0000
61.9000 296.0000 1.0000
61.9200 283.0000 1.0000
61.9400 275.0000 1.0000
61.9600 261.0000 1.0000
61.9800 297.0000 1.0000
62.0000 279.0000 1.0000
62.0200 306.0000 1.0000
62.0400 299.0000 1.0000
62.0600 300.0000 1.0000
62.0800 322.0000 1.0000
62.1000 279.0000 1.0000
62.1200 284.0000 1.0000
62.1400 295.0000 1.0000
62.1600 281.0000 1.0000
62.1800 284.0000 1.0000
62.2000 338.0000 1.0000
62.2200 275.0000 1.0000
62.2400 303.0000 1.0000
62.2600 315.0000 1.0000
62.2800 341.0000 1.0000
62.3000 307.0000 1.0000
62.3200 330.0000 1.0000
62.3400 361.0000 1.0000
62.3600 299.0000 1.0000
62.3800 326.0000 1.0000
62.4000 331.0000 1.0000
62.4200 342.0000 1.0000
62.4400 328.0000 1.0000
62.4600 327.0000 1.0000
62.4800 318.0000 1.0000
62.5000 322.0000 1.0000
62.5200 339.0000 1.0000
62.5400 327.0000 1.0000
62.5600 298.0000 1.0000
62.5800 316.0000 1.0000
62.6000 327.0000 1.0000
62.6200 296.0000 1.0000
62.6400 284.0000 1.0000
62.6600 284.0000 1.0000
62.6800 327.0000 1.0000
62.7000 289.0000 1.0000
62.7200 296.0000 1.0000
62.7400 284.0000 1.0000
62.7600 280.0000 1.0000
62.7800 272.0000 1.0000
62.8000 288.0000 1.0000
62.8200 272.0000 1.0000
62.8400 267.0000 1.0000
62.8600 306.0000 1.0000
62.8800 261.0000 1.0000
62.9000 256.0000 1.0000
62.9200 285.0000 1.0000
62.9400 289.0000 1.0000
62.9600 303.0000 1.0000
62.9800 299.0000 1.0000
63.0000 284.0000 1.0000
63.0200 313.0000 1.0000
63.0400 285.0000 1.0000
63.0600 278.0000 1.0000
63.0800 237.0000 1.0000
63.1000 288.0000 1.0000
63.1200 266.0000 1.0000
63.1400 277.0000 1.0000
63.1600 267.0000 1.0000
63.1800 277.0000 1.0000
63.2000 284.0000 1.0000
63.2200 306.0000 1.0000
63.2400 277.0000 1.0000
63.2600 267.0000 1.0000
63.2800 277.0000 1.0000
63.3000 291.0000 1.0000
63.3200 282.0000 1.0000
63.3400 295.0000 1.0000
63.3600 272.0000 1.0000
63.3800 291.0000 1.0000
63.4000 267.0000 1.0000
63.4200 277.0000 1.0000
63.4400 274.0000 1.0000
63.4600 288.0000 1.0000
63.4800 287.0000 1.0000
63.5000 278.0000 1.0000
63.5200 289.0000 1.0000
63.5400 274.0000 1.0000
63.5600 255.0000 1.0000
63.5800 265.0000 1.0000
63.6000 279.0000 1.0000
63.6200 286.0000 1.0000
63.6400 274.0000 1.0000
63.6600 265.0000 1.0000
63.6800 286.0000 1.0000
63.7000 257.0000 1.0000
63.7200 315.0000 1.0000
63.7400 248.0000 1.0000
63.7600 286.0000 1.0000
63.7800 301.0000 1.0000
63.8000 291.0000 1.0000
63.8200 296.0000 1.0000
63.8400 330.0000 1.0000
63.8600 322.0000 1.0000
63.8800 285.0000 1.0000
63.9000 302.0000 1.0000
63.9200 315.0000 1.0000
63.9400 334.0000 1.0000
63.9600 306.0000 1.0000
63.9800 334.0000 1.0000
64.0000 286.0000 1.0000
64.0200 327.0000 1.0000
64.0400 313.0000 1.0000
64.0600 294.0000 1.0000
64.0800 333.0000 1.0000
64.1000 311.0000 1.0000
64.1200 303.0000 1.0000
64.1400 307.0000 1.0000
64.1600 305.0000 1.0000
64.1800 304.0000 1.0000
64.2000 310.0000 1.0000
64.2200 298.0000 1.0000
64.2400 299.0000 1.0000
64.2600 319.0000 1.0000
64.2800 272.0000 1.0000
64.3000 280.0000 1.0000
64.3200 264.0000 1.0000
64.3400 268.0000 1.0000
64.3600 282.0000 1.0000
64.3800 267.0000 1.0000
64.4000 289.0000 1.0000
64.4200 297.0000 1.0000
64.4400 286.0000 1.0000
64.4600 272.0000 1.0000
64.4800 265.0000 1.0000
64.5000 279.0000 1.0000
64.5200 282.0000 1.0000
64.5400 281.0000 1.0000
64.5600 274.0000 1.0000
64.5800 255.0000 1.0000
64.6000 262.0000 1.0000
64.6200 244.0000 1.0000
64.6400 282.0000 1.0000
64.6600 275.0000 1.0000
64.6800 293.0000 1.0000
64.7000 269.0000 1.0000
64.7200 256.0000 1.0000
64.7400 258.0000 1.0000
64.7600 314.0000 1.0000
64.7800 308.0000 1.0000
64.8000 259.0000 1.0000
64.8200 261.0000 1.0000
64.8400 308.0000 1.0000
64.8600 271.0000 1.0000
64.8800 278.0000 1.0000
64.9000 273.0000 1.0000
64.9200 286.0000 1.0000
64.9400 263.0000 1.0000
64.9600 260.0000 1.0000
64.9800 271.0000 1.0000
65.0000 263.0000 1.0000
65.0200 261.0000 1.0000
65.0400 269.0000 1.0000
65.0600 254.0000 1.0000
65.0800 292.0000 1.0000
65.1000 264.0000 1.0000
65.1200 277.0000 1.0000
65.1400 291.0000 1.0000
65.1600 264.0000 1.0000
65.1800 306.0000 1.0000
65.2000 300.0000 1.0000
65.2200 276.0000 1.0000
65.2400 273.0000 1.0000
65.2600 314.0000 1.0000
65.2800 287.0000 1.0000
65.3000 292.0000 1.0000
65.3200 270.0000 1.0000
65.3400 278.0000 1.0000
65.3600 264.0000 1.0000
65.3800 275.0000 1.0000
65.4000 275.0000 1.0000
65.4200 271.0000 1.0000
65.4400 296.0000 1.0000
65.4600 270.0000 1.0000
65.4800 285.0000 1.0000
65.5000 269.0000 1.0000
65.5200 271.0000 1.0000
65.5400 289.0000 1.0000
65.5600 287.0000 1.0000
65.5800 277.0000 1.0000
65.6000 287.0000 1.0000
65.6200 264.0000 1.0000
65.6400 288.0000 1.0000
65.6600 306.0000 1.0000
65.6800 243.0000 1.0000
65.7000 302.0000 1.0000
65.7200 278.0000 1.0000
65.7400 282.0000 1.0000
65.7600 281.0000 1.0000
65.7800 272.0000 1.0000
65.8000 284.0000 1.0000
65.8200 294.0000 1.0000
65.8400 253.0000 1.0000
65.8600 278.0000 1.0000
65.8800 275.0000 1.0000
65.9000 257.0000 1.0000
65.9200 277.0000 1.0000
65.9400 249.0000 1.0000
65.9600 304.0000 1.0000
65.9800 268.0000 1.0000
66.0000 309.0000 1.0000
66.0200 294.0000 1.0000
66.0400 292.0000 1.0000
66.0600 273.0000 1.0000
66.0800 256.0000 1.0000
66.1000 288.0000 1.0000
66.1200 252.0000 1.0000
66.1400 280.0000 1.0000
66.1600 246.0000 1.0000
66.1800 259.0000 1.0000
66.2000 295.0000 1.0000
66.2200 283.0000 1.0000
66.2400 268.0000 1.0000
66.2600 261.0000 1.0000
66.2800 293.0000 1.0000
66.3000 264.0000 1.0000
66.3200 282.0000 1.0000
66.3400 268.0000 1.0000
66.3600 274.0000 1.0000
66.3800 270.0000 1.0000
66.4000 212.0000 1.0000
66.4200 274.0000 1.0000
66.4400 295.0000 1.0000
66.4600 293.0000 1.0000
66.4800 315.0000 1.0000
66.5000 247.0000 1.0000
66.5200 252.0000 1.0000
66.5400 263.0000 1.0000
66.5600 298.0000 1.0000
66.5800 274.0000 1.0000
66.6000 247.0000 1.0000
66.6200 302.0000 1.0000
66.6400 301.0000 1.0000
66.6600 296.0000 1.0000
66.6800 293.0000 1.0000
66.7000 251.0000 1.0000
66.7200 280.0000 1.0000
66.7400 257.0000 1.0000
66.7600 276.0000 1.0000
66.7800 273.0000 1.0000
66.8000 248.0000 1.0000
66.8200 294.0000 1.0000
66.8400 256.0000 1.0000
66.8600 247.0000 1.0000
66.8800 294.0000 1.0000
66.9000 265.0000 1.0000
66.9200 256.0000 1.0000
66.9400 294.0000 1.0000
66.9600 259.0000 1.0000
66.9800 270.0000 1.0000
67.0000 281.0000 1.0000
67.0200 301.0000 1.0000
67.0400 297.0000 1.0000
67.0600 258.0000 1.0000
67.0800 272.0000 1.0000
67.1000 272.0000 1.0000
67.1200 290.0000 1.0000
67.1400 290.0000 1.0000
67.1600 298.0000 1.0000
67.1800 269.0000 1.0000
67.2000 252.0000 1.0000
67.2200 306.0000 1.0000
67.2400 286.0000 1.0000
67.2600 283.0000 1.0000
67.2800 279.0000 1.0000
67.3000 264.0000 1.0000
67.3200 276.0000 1.0000
67.3400 284.0000 1.0000
67.3600 295.0000 1.0000
67.3800 271.0000 1.0000
67.4000 284.0000 1.0000
67.4200 317.0000 1.0000
67.4400 251.0000 1.0000
67.4600 312.0000 1.0000
67.4800 285.0000 1.0000
67.5000 253.0000 1.0000
67.5200 295.0000 1.0000
67.5400 290.0000 1.0000
67.5600 292.0000 1.0000
67.5800 319.0000 1.0000
67.6000 294.0000 1.0000
67.6200 264.0000 1.0000
67.6400 263.0000 1.0000
67.6600 312.0000 1.0000
67.6800 272.0000 1.0000
67.7000 293.0000 1.0000
67.7200 272.0000 1.0000
67.7400 285.0000 1.0000
67.7600 268.0000 1.0000
67.7800 282.0000 1.0000
67.8000 279.0000 1.0000
67.8200 265.0000 1.0000
67.8400 288.0000 1.0000
67.8600 256.0000 1.0000
67.8800 294.0000 1.0000
67.9000 264.0000 1.0000
67.9200 283.0000 1.0000
67.9400 243.0000 1.0000
67.9600 274.0000 1.0000
67.9800 252.0000 1.0000
68.0000 271.0000 1.0000
68.0200 299.0000 1.0000
68.0400 255.0000 1.0000
68.0600 257.0000 1.0000
68.0800 292.0000 1.0000
68.1000 296.0000 1.0000
68.1200 300.0000 1.0000
68.1400 273.0000 1.0000
68.1600 289.0000 1.0000
68.1800 276.0000 1.0000
68.2000 284.0000 1.0000
68.2200 300.0000 1.0000
68.2400 301.0000 1.0000
68.2600 271.0000 1.0000
68.2800 274.0000 1.0000
68.3000 286.0000 1.0000
68.3200 275.0000 1.0000
68.3400 288.0000 1.0000
68.3600 282.0000 1.0000
68.3800 285.0000 1.0000
68.4000 282.0000 1.0000
68.4200 272.0000 1.0000
68.4400 285.0000 1.0000
68.4600 276.0000 1.0000
68.4800 250.0000 1.0000
68.5000 268.0000 1.0000
68.5200 284.0000 1.0000
68.5400 264.0000 1.0000
68.5600 266.0000 1.0000
68.5800 270.0000 1.0000
68.6000 272.0000 1.0000
68.6200 274.0000 1.0000
68.6400 276.0000 1.0000
68.6600 250.0000 1.0000
68.6800 270.0000 1.0000
68.7000 309.0000 1.0000
68.7200 253.0000 1.0000
68.7400 294.0000 1.0000
68.7600 274.0000 1.0000
68.7800 263.0000 1.0000
68.8000 228.0000 1.0000
68.8200 260.0000 1.0000
68.8400 297.0000 1.0000
68.8600 290.0000 1.0000
68.8800 303.0000 1.0000
68.9000 274.0000 1.0000
68.9200 290.0000 1.0000
68.9400 275.0000 1.0000
68.9600 268.0000 1.0000
68.9800 282.0000 1.0000
69.0000 260.0000 1.0000
69.0200 283.0000 1.0000
69.0400 302.0000 1.0000
69.0600 292.0000 1.0000
69.0800 274.0000 1.0000
69.1000 280.0000 1.0000
69.1200 253.0000 1.0000
69.1400 290.0000 1.0000
69.1600 292.0000 1.0000
69.1800 284.0000 1.0000
69.2000 273.0000 1.0000
69.2200 285.0000 1.0000
69.2400 273.0000 1.0000
69.2600 296.0000 1.0000
69.2800 292.0000 1.0000
69.3000 238.0000 1.0000
69.3200 316.0000 1.0000
69.3400 275.0000 1.0000
69.3600 295.0000 1.0000
69.3800 323.0000 1.0000
69.4000 327.0000 1.0000
69.4200 264.0000 1.0000
69.4400 286.0000 1.0000
69.4600 255.0000 1.0000
69.4800 262.0000 1.0000
69.5000 279.0000 1.0000
69.5200 281.0000 1.0000
69.5400 286.0000 1.0000
69.5600 269.0000 1.0000
69.5800 287.0000 1.0000
69.6000 294.0000 1.0000
69.6200 271.0000 1.0000
69.6400 240.0000 1.0000
69.6600 309.0000 1.0000
69.6800 284.0000 1.0000
69.7000 293.0000 1.0000
69.7200 282.0000 1.0000
69.7400 267.0000 1.0000
69.7600 284.0000 1.0000
69.7800 307.0000 1.0000
69.8000 294.0000 1.0000
69.8200 288.0000 1.0000
69.8400 331.0000 1.0000
69.8600 295.0000 1.0000
69.8800 285.0000 1.0000
69.9000 269.0000 1.0000
69.9200 284.0000 1.0000
69.9400 280.0000 1.0000
69.9600 298.0000 1.0000
69.9800 245.0000 1.0000
70.0000 293.0000 1.0000
70.0200 250.0000 1.0000
70.0400 299.0000 1.0000
70.0600 290.0000 1.0000
70.0800 280.0000 1.0000
70.1000 318.0000 1.0000
70.1200 291.0000 1.0000
70.1400 259.0000 1.0000
70.1600 303.0000 1.0000
70.1800 258.0000 1.0000
70.2000 263.0000 1.0000
70.2200 319.0000 1.0000
70.2400 267.0000 1.0000
70.2600 311.0000 1.0000
70.2800 298.0000 1.0000
70.3000 304.0000 1.0000
70.3200 241.0000 1.0000
70.3400 312.0000 1.0000
70.3600 296.0000 1.0000
70.3800 295.0000 1.0000
70.4000 284.0000 1.0000
70.4200 267.0000 1.0000
70.4400 291.0000 1.0000
70.4600 270.0000 1.0000
70.4800 258.0000 1.0000
70.5000 293.0000 1.0000
70.5200 278.0000 1.0000
70.5400 296.0000 1.0000
70.5600 281.0000 1.0000
70.5800 282.0000 1.0000
70.6000 258.0000 1.0000
70.6200 266.0000 1.0000
70.6400 297.0000 1.0000
70.6600 247.0000 1.0000
70.6800 291.0000 1.0000
70.7000 293.0000 1.0000
70.7200 263.0000 1.0000
70.7400 282.0000 1.0000
70.7600 276.0000 1.0000
70.7800 306.0000 1.0000
70.8000 243.0000 1.0000
70.8200 284.0000 1.0000
70.8400 302.0000 1.0000
70.8600 271.0000 1.0000
70.8800 309.0000 1.0000
70.9000 290.0000 1.0000
70.9200 277.0000 1.0000
70.9400 263.0000 1.0000
70.9600 268.0000 1.0000
70.9800 281.0000 1.0000
71.0000 264.0000 1.0000
71.0200 287.0000 1.0000
71.0400 300.0000 1.0000
71.0600 251.0000 1.0000
71.0800 274.0000 1.0000
71.1000 292.0000 1.0000
71.1200 284.0000 1.0000
71.1400 270.0000 1.0000
71.1600 265.0000 1.0000
71.1800 289.0000 1.0000
71.2000 294.0000 1.0000
71.2200 288.0000 1.0000
71.2400 282.0000 1.0000
71.2600 279.0000 1.0000
71.2800 266.0000 1.0000
71.3000 264.0000 1.0000
71.3200 271.0000 1.0000
71.3400 275.0000 1.0000
71.3600 260.0000 1.0000
71.3800 253.0000 1.0000
71.4000 281.0000 1.0000
71.4200 273.0000 1.0000
71.4400 286.0000 1.0000
71.4600 270.0000 1.0000
71.4800 249.0000 1.0000
71.5000 249.0000 1.0000
71.5200 272.0000 1.0000
71.5400 260.0000 1.0000
71.5600 288.0000 1.0000
71.5800 272.0000 1.0000
71.6000 286.0000 1.0000
71.6200 279.0000 1.0000
71.6400 270.0000 1.0000
71.6600 280.0000 1.0000
71.6800 265.0000 1.0000
71.7000 328.0000 1.0000
71.7200 267.0000 1.0000
71.7400 325.0000 1.0000
71.7600 285.0000 1.0000
71.7800 298.0000 1.0000
71.8000 275.0000 1.0000
71.8200 308.0000 1.0000
71.8400 309.0000 1.0000
71.8600 297.0000 1.0000
71.8800 297.0000 1.0000
71.9000 328.0000 1.0000
71.9200 285.0000 1.0000
71.9400 281.0000 1.0000
71.9600 277.0000 1.0000
71.9800 312.0000 1.0000
72.0000 311.0000 1.0000
72.0200 315.0000 1.0000
72.0400 319.0000 1.0000
72.0600 271.0000 1.0000
72.0800 293.0000 1.0000
72.1000 297.0000 1.0000
72.1200 298.0000 1.0000
72.1400 303.0000 1.0000
72.1600 276.0000 1.0000
72.1800 302.0000 1.0000
72.2000 264.0000 1.0000
72.2200 301.0000 1.0000
72.2400 271.0000 1.0000
72.2600 305.0000 1.0000
72.2800 313.0000 1.0000
72.3000 274.0000 1.0000
72.3200 283.0000 1.0000
72.3400 292.0000 1.0000
72.3600 297.0000 1.0000
72.3800 304.0000 1.0000
72.4000 256.0000 1.0000
72.4200 297.0000 1.0000
72.4400 271.0000 1.0000
72.4600 282.0000 1.0000
72.4800 279.0000 1.0000
72.5000 259.0000 1.0000
72.5200 276.0000 1.0000
72.5400 285.0000 1.0000
72.5600 312.0000 1.0000
72.5800 280.0000 1.0000
72.6000 270.0000 1.0000
72.6200 287.0000 1.0000
72.6400 282.0000 1.0000
72.6600 276.0000 1.0000
72.6800 289.0000 1.0000
72.7000 318.0000 1.0000
72.7200 295.0000 1.0000
72.7400 248.0000 1.0000
72.7600 293.0000 1.0000
72.7800 302.0000 1.0000
72.8000 258.0000 1.0000
72.8200 276.0000 1.0000
72.8400 267.0000 1.0000
72.8600 304.0000 1.0000
72.8800 287.0000 1.0000
72.9000 288.0000 1.0000
72.9200 266.0000 1.0000
72.9400 305.0000 1.0000
72.9600 272.0000 1.0000
72.9800 267.0000 1.0000
73.0000 278.0000 1.0000
73.0200 281.0000 1.0000
73.0400 303.0000 1.0000
73.0600 278.0000 1.0000
73.0800 261.0000 1.0000
73.1000 258.0000 1.0000
73.1200 285.0000 1.0000
73.1400 286.0000 1.0000
73.1600 275.0000 1.0000
73.1800 276.0000 1.0000
73.2000 263.0000 1.0000
73.2200 262.0000 1.0000
73.2400 276.0000 1.0000
73.2600 266.0000 1.0000
73.2800 275.0000 1.0000
73.3000 295.0000 1.0000
73.3200 249.0000 1.0000
73.3400 293.0000 1.0000
73.3600 284.0000 1.0000
73.3800 275.0000 1.0000
73.4000 281.0000 1.0000
73.4200 244.0000 1.0000
73.4400 241.0000 1.0000
73.4600 232.0000 1.0000
73.4800 302.0000 1.0000
73.5000 268.0000 1.0000
73.5200 298.0000 1.0000
73.5400 282.0000 1.0000
73.5600 276.0000 1.0000
73.5800 269.0000 1.0000
73.6000 279.0000 1.0000
73.6200 280.0000 1.0000
73.6400 277.0000 1.0000
73.6600 285.0000 1.0000
73.6800 259.0000 1.0000
73.7000 262.0000 1.0000
73.7200 284.0000 1.0000
73.7400 294.0000 1.0000
73.7600 274.0000 1.0000
73.7800 258.0000 1.0000
73.8000 295.0000 1.0000
73.8200 270.0000 1.0000
73.8400 267.0000 1.0000
73.8600 296.0000 1.0000
73.8800 282.0000 1.0000
73.9000 278.0000 1.0000
73.9200 288.0000 1.0000
73.9400 309.0000 1.0000
73.9600 284.0000 1.0000
73.9800 254.0000 1.0000
74.0000 267.0000 1.0000
74.0200 267.0000 1.0000
74.0400 276.0000 1.0000
74.0600 297.0000 1.0000
74.0800 281.0000 1.0000
74.1000 265.0000 1.0000
74.1200 260.0000 1.0000
74.1400 275.0000 1.0000
74.1600 290.0000 1.0000
74.1800 289.0000 1.0000
74.2000 282.0000 1.0000
74.2200 299.0000 1.0000
74.2400 294.0000 1.0000
74.2600 285.0000 1.0000
74.2800 277.0000 1.0000
74.3000 301.0000 1.0000
74.3200 244.0000 1.0000
74.3400 268.0000 1.0000
74.3600 300.0000 1.0000
74.3800 282.0000 1.0000
74.4000 285.0000 1.0000
74.4200 272.0000 1.0000
74.4400 263.0000 1.0000
74.4600 279.0000 1.0000
74.4800 303.0000 1.0000
74.5000 304.0000 1.0000
74.5200 300.0000 1.0000
74.5400 296.0000 1.0000
74.5600 295.0000 1.0000
74.5800 276.0000 1.0000
74.6000 278.0000 1.0000
74.6200 272.0000 1.0000
74.6400 280.0000 1.0000
74.6600 289.0000 1.0000
74.6800 287.0000 1.0000
74.7000 286.0000 1.0000
74.7200 292.0000 1.0000
74.7400 250.0000 1.0000
74.7600 267.0000 1.0000
74.7800 261.0000 1.0000
74.8000 286.0000 1.0000
74.8200 297.0000 1.0000
74.8400 311.0000 1.0000
74.8600 294.0000 1.0000
74.8800 275.0000 1.0000
74.9000 292.0000 1.0000
74.9200 290.0000 1.0000
74.9400 269.0000 1.0000
74.9600 270.0000 1.0000
74.9800 270.0000 1.0000
75.0000 273.0000 1.0000
75.0200 281.0000 1.0000
75.0400 288.0000 1.0000
75.0600 298.0000 1.0000
75.0800 326.0000 1.0000
75.1000 291.0000 1.0000
75.1200 269.0000 1.0000
75.1400 282.0000 1.0000
75.1600 278.0000 1.0000
75.1800 264.0000 1.0000
75.2000 279.0000 1.0000
75.2200 282.0000 1.0000
75.2400 319.0000 1.0000
75.2600 270.0000 1.0000
75.2800 256.0000 1.0000
75.3000 297.0000 1.0000
75.3200 299.0000 1.0000
75.3400 297.0000 1.0000
75.3600 277.0000 1.0000
75.3800 285.0000 1.0000
75.4000 289.0000 1.0000
75.4200 302.0000 1.0000
75.4400 269.0000 1.0000
75.4600 300.0000 1.0000
75.4800 296.0000 1.0000
75.5000 272.0000 1.0000
75.5200 263.0000 1.0000
75.5400 287.0000 1.0000
75.5600 282.0000 1.0000
75.5800 267.0000 1.0000
75.6000 282.0000 1.0000
75.6200 245.0000 1.0000
75.6400 300.0000 1.0000
75.6600 278.0000 1.0000
75.6800 262.0000 1.0000
75.7000 285.0000 1.0000
75.7200 277.0000 1.0000
75.7400 271.0000 1.0000
75.7600 296.0000 1.0000
75.7800 270.0000 1.0000
75.8000 269.0000 1.0000
75.8200 255.0000 1.0000
75.8400 262.0000 1.0000
75.8600 285.0000 1.0000
75.8800 300.0000 1.0000
75.9000 296.0000 1.0000
75.9200 271.0000 1.0000
75.9400 281.0000 1.0000
75.9600 282.0000 1.0000
75.9800 278.0000 1.0000
76.0000 273.0000 1.0000
76.0200 263.0000 1.0000
76.0400 283.0000 1.0000
76.0600 261.0000 1.0000
76.0800 289.0000 1.0000
76.1000 288.0000 1.0000
76.1200 259.0000 1.0000
76.1400 267.0000 1.0000
76.1600 305.0000 1.0000
76.1800 281.0000 1.0000
76.2000 259.0000 1.0000
76.2200 299.0000 1.0000
76.2400 276.0000 1.0000
76.2600 272.0000 1.0000
76.2800 268.0000 1.0000
76.3000 288.0000 1.0000
76.3200 287.0000 1.0000
76.3400 240.0000 1.0000
76.3600 265.0000 1.0000
76.3800 296.0000 1.0000
76.4000 281.0000 1.0000
76.4200 282.0000 1.0000
76.4400 279.0000 1.0000
76.4600 302.0000 1.0000
76.4800 296.0000 1.0000
76.5000 260.0000 1.0000
76.5200 283.0000 1.0000
76.5400 260.0000 1.0000
76.5600 301.0000 1.0000
76.5800 281.0000 1.0000
76.6000 278.0000 1.0000
76.6200 251.0000 1.0000
76.6400 276.0000 1.0000
76.6600 279.0000 1.0000
76.6800 280.0000 1.0000
76.7000 257.0000 1.0000
76.7200 289.0000 1.0000
76.7400 310.0000 1.0000
76.7600 287.0000 1.0000
76.7800 280.0000 1.0000
76.8000 260.0000 1.0000
76.8200 250.0000 1.0000
76.8400 283.0000 1.0000
76.8600 299.0000 1.0000
76.8800 297.0000 1.0000
76.9000 285.0000 1.0000
76.9200 290.0000 1.0000
76.9400 262.0000 1.0000
76.9600 271.0000 1.0000
76.9800 300.0000 1.0000
77.0000 254.0000 1.0000
77.0200 285.0000 1.0000
77.0400 277.0000 1.0000
77.0600 266.0000 1.0000
77.0800 292.0000 1.0000
77.1000 295.0000 1.0000
77.1200 298.0000 1.0000
77.1400 291.0000 1.0000
77.1600 310.0000 1.0000
77.1800 294.0000 1.0000
77.2000 280.0000 1.0000
77.2200 269.0000 1.0000
77.2400 291.0000 1.0000
77.2600 266.0000 1.0000
77.2800 256.0000 1.0000
77.3000 279.0000 1.0000
77.3200 265.0000 1.0000
77.3400 278.0000 1.0000
77.3600 288.0000 1.0000
77.3800 315.0000 1.0000
77.4000 265.0000 1.0000
77.4200 260.0000 1.0000
77.4400 286.0000 1.0000
77.4600 285.0000 1.0000
77.4800 263.0000 1.0000
77.5000 261.0000 1.0000
77.5200 295.0000 1.0000
77.5400 290.0000 1.0000
77.5600 242.0000 1.0000
77.5800 272.0000 1.0000
77.6000 254.0000 1.0000
77.6200 293.0000 1.0000
77.6400 278.0000 1.0000
77.6600 303.0000 1.0000
77.6800 284.0000 1.0000
77.7000 300.0000 1.0000
77.7200 271.0000 1.0000
77.7400 266.0000 1.0000
77.7600 307.0000 1.0000
77.7800 282.0000 1.0000
77.8000 277.0000 1.0000
77.8200 270.0000 1.0000
77.8400 264.0000 1.0000
77.8600 275.0000 1.0000
77.8800 255.0000 1.0000
77.9000 295.0000 1.0000
77.9200 266.0000 1.0000
77.9400 307.0000 1.0000
77.9600 283.0000 1.0000
77.9800 273.0000 1.0000
78.0000 297.0000 1.0000
78.0200 237.0000 1.0000
78.0400 287.0000 1.0000
78.0600 232.0000 1.0000
78.0800 283.0000 1.0000
78.1000 282.0000 1.0000
78.1200 278.0000 1.0000
78.1400 254.0000 1.0000
78.1600 287.0000 1.0000
78.1800 266.0000 1.0000
78.2000 271.0000 1.0000
78.2200 295.0000 1.0000
78.2400 272.0000 1.0000
78.2600 259.0000 1.0000
78.2800 263.0000 1.0000
78.3000 273.0000 1.0000
78.3200 280.0000 1.0000
78.3400 276.0000 1.0000
78.3600 277.0000 1.0000
78.3800 299.0000 1.0000
78.4000 283.0000 1.0000
78.4200 279.0000 1.0000
78.4400 298.0000 1.0000
78.4600 278.0000 1.0000
78.4800 282.0000 1.0000
78.5000 268.0000 1.0000
78.5200 269.0000 1.0000
78.5400 314.0000 1.0000
78.5600 290.0000 1.0000
78.5800 262.0000 1.0000
78.6000 317.0000 1.0000
78.6200 303.0000 1.0000
78.6400 293.0000 1.0000
78.6600 286.0000 1.0000
78.6800 265.0000 1.0000
78.7000 278.0000 1.0000
78.7200 261.0000 1.0000
78.7400 287.0000 1.0000
78.7600 275.0000 1.0000
78.7800 278.0000 1.0000
78.8000 267.0000 1.0000
78.8200 278.0000 1.0000
78.8400 274.0000 1.0000
78.8600 259.0000 1.0000
78.8800 308.0000 1.0000
78.9000 288.0000 1.0000
78.9200 275.0000 1.0000
78.9400 280.0000 1.0000
78.9600 251.0000 1.0000
78.9800 306.0000 1.0000
79.0000 270.0000 1.0000
79.0200 288.0000 1.0000
79.0400 290.0000 1.0000
79.0600 290.0000 1.0000
79.0800 275.0000 1.0000
79.1000 266.0000 1.0000
79.1200 288.0000 1.0000
79.1400 274.0000 1.0000
79.1600 249.0000 1.0000
79.1800 285.0000 1.0000
79.2000 258.0000 1.0000
79.2200 258.0000 1.0000
79.2400 302.0000 1.0000
79.2600 253.0000 1.0000
79.2800 272.0000 1.0000
79.3000 233.0000 1.0000
79.3200 275.0000 1.0000
79.3400 273.0000 1.0000
79.3600 249.0000 1.0000
79.3800 287.0000 1.0000
79.4000 260.0000 1.0000
79.4200 263.0000 1.0000
79.4400 276.0000 1.0000
79.4600 277.0000 1.0000
79.4800 274.0000 1.0000
79.5000 280.0000 1.0000
79.5200 302.0000 1.0000
79.5400 255.0000 1.0000
79.5600 290.0000 1.0000
79.5800 251.0000 1.0000
79.6000 288.0000 1.0000
79.6200 310.0000 1.0000
79.6400 299.0000 1.0000
79.6600 294.0000 1.0000
79.6800 260.0000 1.0000
79.7000 292.0000 1.0000
79.7200 264.0000 1.0000
79.7400 272.0000 1.0000
79.7600 306.0000 1.0000
79.7800 249.0000 1.0000
79.8000 284.0000 1.0000
79.8200 307.0000 1.0000
79.8400 256.0000 1.0000
79.8600 248.0000 1.0000
79.8800 266.0000 1.0000
79.9000 294.0000 1.0000
79.9200 286.0000 1.0000
79.9400 274.0000 1.0000
79.9600 266.0000 1.0000
79.9800 326.0000 1.0000
80.0000 276.0000 1.0000
80.0200 284.0000 1.0000
80.0400 284.0000 1.0000
80.0600 269.0000 1.0000
80.0800 269.0000 1.0000
80.1000 276.0000 1.0000
80.1200 279.0000 1.0000
80.1400 286.0000 1.0000
80.1600 270.0000 1.0000
80.1800 257.0000 1.0000
80.2000 296.0000 1.0000
80.2200 272.0000 1.0000
80.2400 308.0000 1.0000
80.2600 254.0000 1.0000
80.2800 315.0000 1.0000
80.3000 284.0000 1.0000
80.3200 261.0000 1.0000
80.3400 292.0000 1.0000
80.3600 287.0000 1.0000
80.3800 285.0000 1.0000
80.4000 298.0000 1.0000
80.4200 289.0000 1.0000
80.4400 328.0000 1.0000
80.4600 273.0000 1.0000
80.4800 251.0000 1.0000
80.5000 244.0000 1.0000
80.5200 278.0000 1.0000
80.5400 278.0000 1.0000
80.5600 293.0000 1.0000
80.5800 304.0000 1.0000
80.6000 265.0000 1.0000
80.6200 273.0000 1.0000
80.6400 287.0000 1.0000
80.6600 287.0000 1.0000
80.6800 281.0000 1.0000
80.7000 285.0000 1.0000
80.7200 270.0000 1.0000
80.7400 276.0000 1.0000
80.7600 265.0000 1.0000
80.7800 283.0000 1.0000
80.8000 303.0000 1.0000
80.8200 271.0000 1.0000
80.8400 308.0000 1.0000
80.8600 278.0000 1.0000
80.8800 279.0000 1.0000
80.9000 260.0000 1.0000
80.9200 303.0000 1.0000
80.9400 245.0000 1.0000
80.9600 269.0000 1.0000
80.9800 291.0000 1.0000
81.0000 307.0000 1.0000
81.0200 271.0000 1.0000
81.0400 283.0000 1.0000
81.0600 287.0000 1.0000
81.0800 303.0000 1.0000
81.1000 282.0000 1.0000
81.1200 277.0000 1.0000
81.1400 277.0000 1.0000
81.1600 278.0000 1.0000
81.1800 298.0000 1.0000
81.2000 258.0000 1.0000
81.2200 257.0000 1.0000
81.2400 297.0000 1.0000
81.2600 313.0000 1.0000
81.2800 273.0000 1.0000
81.3000 270.0000 1.0000
81.3200 264.0000 1.0000
81.3400 254.0000 1.0000
81.3600 297.0000 1.0000
81.3800 263.0000 1.0000
81.4000 313.0000 1.0000
81.4200 307.0000 1.0000
81.4400 277.0000 1.0000
81.4600 291.0000 1.0000
81.4800 282.0000 1.0000
81.5000 284.0000 1.0000
81.5200 278.0000 1.0000
81.5400 266.0000 1.0000
81.5600 265.0000 1.0000
81.5800 295.0000 1.0000
81.6000 272.0000 1.0000
81.6200 260.0000 1.0000
81.6400 279.0000 1.0000
81.6600 271.0000 1.0000
81.6800 260.0000 1.0000
81.7000 270.0000 1.0000
81.7200 275.0000 1.0000
81.7400 261.0000 1.0000
81.7600 286.0000 1.0000
81.7800 283.0000 1.0000
81.8000 291.0000 1.0000
81.8200 299.0000 1.0000
81.8400 241.0000 1.0000
81.8600 285.0000 1.0000
81.8800 276.0000 1.0000
81.9000 279.0000 1.0000
81.9200 299.0000 1.0000
81.9400 251.0000 1.0000
81.9600 285.0000 1.0000
81.9800 248.0000 1.0000
82.0000 277.0000 1.0000
82.0200 300.0000 1.0000
82.0400 261.0000 1.0000
82.0600 281.0000 1.0000
82.0800 285.0000 1.0000
82.1000 281.0000 1.0000
82.1200 264.0000 1.0000
82.1400 284.0000 1.0000
82.1600 313.0000 1.0000
82.1800 276.0000 1.0000
82.2000 289.0000 1.0000
82.2200 283.0000 1.0000
82.2400 282.0000 1.0000
82.2600 283.0000 1.0000
82.2800 247.0000 1.0000
82.3000 270.0000 1.0000
82.3200 257.0000 1.0000
82.3400 266.0000 1.0000
82.3600 296.0000 1.0000
82.3800 236.0000 1.0000
82.4000 291.0000 1.0000
82.4200 297.0000 1.0000
82.4400 284.0000 1.0000
82.4600 263.0000 1.0000
82.4800 296.0000 1.0000
82.5000 296.0000 1.0000
82.5200 271.0000 1.0000
82.5400 268.0000 1.0000
82.5600 262.0000 1.0000
82.5800 268.0000 1.0000
82.6000 275.0000 1.0000
82.6200 271.0000 1.0000
82.6400 278.0000 1.0000
82.6600 272.0000 1.0000
82.6800 270.0000 1.0000
82.7000 255.0000 1.0000
82.7200 273.0000 1.0000
82.7400 280.0000 1.0000
82.7600 312.0000 1.0000
82.7800 296.0000 1.0000
82.8000 278.0000 1.0000
82.8200 312.0000 1.0000
82.8400 252.0000 1.0000
82.8600 301.0000 1.0000
82.8800 294.0000 1.0000
82.9000 270.0000 1.0000
82.9200 304.0000 1.0000
82.9400 276.0000 1.0000
82.9600 267.0000 1.0000
82.9800 299.0000 1.0000
83.0000 278.0000 1.0000
83.0200 304.0000 1.0000
83.0400 288.0000 1.0000
83.0600 291.0000 1.0000
83.0800 297.0000 1.0000
83.1000 267.0000 1.0000
83.1200 290.0000 1.0000
83.1400 261.0000 1.0000
83.1600 265.0000 1.0000
83.1800 278.0000 1.0000
83.2000 264.0000 1.0000
83.2200 261.0000 1.0000
83.2400 276.0000 1.0000
83.2600 256.0000 1.0000
83.2800 307.0000 1.0000
83.3000 294.0000 1.0000
83.3200 264.0000 1.0000
83.3400 247.0000 1.0000
83.3600 286.0000 1.0000
83.3800 277.0000 1.0000
83.4000 296.0000 1.0000
83.4200 270.0000 1.0000
83.4400 294.0000 1.0000
83.4600 271.0000 1.0000
83.4800 290.0000 1.0000
83.5000 255.0000 1.0000
83.5200 258.0000 1.0000
83.5400 291.0000 1.0000
83.5600 263.0000 1.0000
83.5800 299.0000 1.0000
83.6000 287.0000 1.0000
83.6200 277.0000 1.0000
83.6400 291.0000 1.0000
83.6600 281.0000 1.0000
83.6800 289.0000 1.0000
83.7000 271.0000 1.0000
83.7200 330.0000 1.0000
83.7400 250.0000 1.0000
83.7600 262.0000 1.0000
83.7800 278.0000 1.0000
83.8000 245.0000 1.0000
83.8200 274.0000 1.0000
83.8400 283.0000 1.0000
83.8600 299.0000 1.0000
83.8800 276.0000 1.0000
83.9000 325.0000 1.0000
83.9200 264.0000 1.0000
83.9400 290.0000 1.0000
83.9600 306.0000 1.0000
83.9800 259.0000 1.0000
84.0000 318.0000 1.0000
84.0200 274.0000 1.0000
84.0400 259.0000 1.0000
84.0600 292.0000 1.0000
84.0800 243.0000 1.0000
84.1000 264.0000 1.0000
84.1200 318.0000 1.0000
84.1400 275.0000 1.0000
84.1600 319.0000 1.0000
84.1800 275.0000 1.0000
84.2000 272.0000 1.0000
84.2200 293.0000 1.0000
84.2400 271.0000 1.0000
84.2600 264.0000 1.0000
84.2800 288.0000 1.0000
84.3000 309.0000 1.0000
84.3200 280.0000 1.0000
84.3400 245.0000 1.0000
84.3600 266.0000 1.0000
84.3800 280.0000 1.0000
84.4000 291.0000 1.0000
84.4200 260.0000 1.0000
84.4400 266.0000 1.0000
84.4600 278.0000 1.0000
84.4800 324.0000 1.0000
84.5000 272.0000 1.0000
84.5200 260.0000 1.0000
84.5400 258.0000 1.0000
84.5600 299.0000 1.0000
84.5800 269.0000 1.0000
84.6000 277.0000 1.0000
84.6200 272.0000 1.0000
84.6400 317.0000 1.0000
84.6600 276.0000 1.0000
84.6800 270.0000 1.0000
84.7000 280.0000 1.0000
84.7200 277.0000 1.0000
84.7400 257.0000 1.0000
84.7600 253.0000 1.0000
84.7800 270.0000 1.0000
84.8000 288.0000 1.0000
84.8200 316.0000 1.0000
84.8400 288.0000 1.0000
84.8600 283.0000 1.0000
84.8800 327.0000 1.0000
84.9000 261.0000 1.0000
84.9200 257.0000 1.0000
84.9400 274.0000 1.0000
84.9600 273.0000 1.0000
84.9800 276.0000 1.0000
85.0000 291.0000 1.0000
85.0200 284.0000 1.0000
85.0400 271.0000 1.0000
85.0600 333.0000 1.0000
85.0800 285.0000 1.0000
85.1000 267.0000 1.0000
85.1200 284.0000 1.0000
85.1400 282.0000 1.0000
85.1600 262.0000 1.0000
85.1800 292.0000 1.0000
85.2000 280.0000 1.0000
85.2200 306.0000 1.0000
85.2400 292.0000 1.0000
85.2600 273.0000 1.0000
85.2800 282.0000 1.0000
85.3000 283.0000 1.0000
85.3200 294.0000 1.0000
85.3400 266.0000 1.0000
85.3600 273.0000 1.0000
85.3800 279.0000 1.0000
85.4000 280.0000 1.0000
85.4200 266.0000 1.0000
85.4400 284.0000 1.0000
85.4600 281.0000 1.0000
85.4800 278.0000 1.0000
85.5000 265.0000 1.0000
85.5200 264.0000 1.0000
85.5400 265.0000 1.0000
85.5600 241.0000 1.0000
85.5800 270.0000 1.0000
85.6000 247.0000 1.0000
85.6200 289.0000 1.0000
85.6400 283.0000 1.0000
85.6600 277.0000 1.0000
85.6800 273.0000 1.0000
85.7000 263.0000 1.0000
85.7200 276.0000 1.0000
85.7400 278.0000 1.0000
85.7600 266.0000 1.0000
85.7800 295.0000 1.0000
85.8000 257.0000 1.0000
85.8200 249.0000 1.0000
85.8400 303.0000 1.0000
85.8600 291.0000 1.0000
85.8800 248.0000 1.0000
85.9000 285.0000 1.0000
85.9200 242.0000 1.0000
85.9400 270.0000 1.0000
85.9600 230.0000 1.0000
85.9800 273.0000 1.0000
86.0000 274.0000 1.0000
86.0200 274.0000 1.0000
86.0400 262.0000 1.0000
86.0600 276.0000 1.0000
86.0800 271.0000 1.0000
86.1000 253.0000 1.0000
86.1200 270.0000 1.0000
86.1400 252.0000 1.0000
86.1600 288.0000 1.0000
86.1800 277.0000 1.0000
86.2000 289.0000 1.0000
86.2200 272.0000 1.0000
86.2400 276.0000 1.0000
86.2600 260.0000 1.0000
86.2800 285.0000 1.0000
86.3000 261.0000 1.0000
86.3200 249.0000 1.0000
86.3400 272.0000 1.0000
86.3600 279.0000 1.0000
86.3800 293.0000 1.0000
86.4000 255.0000 1.0000
86.4200 265.0000 1.0000
86.4400 258.0000 1.0000
86.4600 297.0000 1.0000
86.4800 305.0000 1.0000
86.5000 286.0000 1.0000
86.5200 256.0000 1.0000
86.5400 277.0000 1.0000
86.5600 318.0000 1.0000
86.5800 277.0000 1.0000
86.6000 299.0000 1.0000
86.6200 273.0000 1.0000
86.6400 294.0000 1.0000
86.6600 259.0000 1.0000
86.6800 273.0000 1.0000
86.7000 272.0000 1.0000
86.7200 285.0000 1.0000
86.7400 268.0000 1.0000
86.7600 258.0000 1.0000
86.7800 271.0000 1.0000
86.8000 267.0000 1.0000
86.8200 277.0000 1.0000
86.8400 282.0000 1.0000
86.8600 248.0000 1.0000
86.8800 277.0000 1.0000
86.9000 311.0000 1.0000
86.9200 271.0000 1.0000
86.9400 283.0000 1.0000
86.9600 272.0000 1.0000
86.9800 259.0000 1.0000
87.0000 291.0000 1.0000
87.0200 268.0000 1.0000
87.0400 274.0000 1.0000
87.0600 291.0000 1.0000
87.0800 276.0000 1.0000
87.1000 282.0000 1.0000
87.1200 283.0000 1.0000
87.1400 275.0000 1.0000
87.1600 269.0000 1.0000
87.1800 252.0000 1.0000
87.2000 269.0000 1.0000
87.2200 272.0000 1.0000
87.2400 275.0000 1.0000
87.2600 269.0000 1.0000
87.2800 265.0000 1.0000
87.3000 270.0000 1.0000
87.3200 264.0000 1.0000
87.3400 249.0000 1.0000
87.3600 272.0000 1.0000
87.3800 229.0000 1.0000
87.4000 283.0000 1.0000
87.4200 297.0000 1.0000
87.4400 269.0000 1.0000
87.4600 264.0000 1.0000
87.4800 265.0000 1.0000
87.5000 246.0000 1.0000
87.5200 264.0000 1.0000
87.5400 304.0000 1.0000
87.5600 289.0000 1.0000
87.5800 259.0000 1.0000
87.6000 256.0000 1.0000
87.6200 292.0000 1.0000
87.6400 291.0000 1.0000
87.6600 281.0000 1.0000
87.6800 293.0000 1.0000
87.7000 275.0000 1.0000
87.7200 294.0000 1.0000
87.7400 253.0000 1.0000
87.7600 245.0000 1.0000
87.7800 303.0000 1.0000
87.8000 282.0000 1.0000
87.8200 270.0000 1.0000
87.8400 276.0000 1.0000
87.8600 299.0000 1.0000
87.8800 292.0000 1.0000
87.9000 278.0000 1.0000
87.9200 250.0000 1.0000
87.9400 267.0000 1.0000
87.9600 282.0000 1.0000
87.9800 279.0000 1.0000
88.0000 256.0000 1.0000
88.0200 255.0000 1.0000
88.0400 274.0000 1.0000
88.0600 299.0000 1.0000
88.0800 265.0000 1.0000
88.1000 274.0000 1.0000
88.1200 296.0000 1.0000
88.1400 267.0000 1.0000
88.1600 265.0000 1.0000
88.1800 303.0000 1.0000
88.2000 272.0000 1.0000
88.2200 275.0000 1.0000
88.2400 272.0000 1.0000
88.2600 273.0000 1.0000
88.2800 277.0000 1.0000
88.3000 298.0000 1.0000
88.3200 295.0000 1.0000
88.3400 283.0000 1.0000
88.3600 266.0000 1.0000
88.3800 309.0000 1.0000
88.4000 255.0000 1.0000
88.4200 297.0000 1.0000
88.4400 297.0000 1.0000
88.4600 291.0000 1.0000
88.4800 303.0000 1.0000
88.5000 266.0000 1.0000
88.5200 287.0000 1.0000
88.5400 260.0000 1.0000
88.5600 312.0000 1.0000
88.5800 322.0000 1.0000
88.6000 298.0000 1.0000
88.6200 271.0000 1.0000
88.6400 318.0000 1.0000
88.6600 324.0000 1.0000
88.6800 281.0000 1.0000
88.7000 283.0000 1.0000
88.7200 268.0000 1.0000
88.7400 277.0000 1.0000
88.7600 286.0000 1.0000
88.7800 250.0000 1.0000
88.8000 293.0000 1.0000
88.8200 266.0000 1.0000
88.8400 281.0000 1.0000
88.8600 261.0000 1.0000
88.8800 302.0000 1.0000
88.9000 282.0000 1.0000
88.9200 258.0000 1.0000
88.9400 281.0000 1.0000
88.9600 258.0000 1.0000
88.9800 260.0000 1.0000
89.0000 278.0000 1.0000
89.0200 264.0000 1.0000
89.0400 270.0000 1.0000
89.0600 283.0000 1.0000
89.0800 267.0000 1.0000
89.1000 281.0000 1.0000
89.1200 259.0000 1.0000
89.1400 257.0000 1.0000
89.1600 294.0000 1.0000
89.1800 303.0000 1.0000
89.2000 270.0000 1.0000
89.2200 259.0000 1.0000
89.2400 279.0000 1.0000
89.2600 265.0000 1.0000
89.2800 269.0000 1.0000
89.3000 290.0000 1.0000
89.3200 278.0000 1.0000
89.3400 294.0000 1.0000
89.3600 276.0000 1.0000
89.3800 259.0000 1.0000
89.4000 263.0000 1.0000
89.4200 287.0000 1.0000
89.4400 262.0000 1.0000
89.4600 304.0000 1.0000
89.4800 274.0000 1.0000
89.5000 262.0000 1.0000
89.5200 274.0000 1.0000
89.5400 265.0000 1.0000
89.5600 267.0000 1.0000
89.5800 240.0000 1.0000
89.6000 279.0000 1.0000
89.6200 308.0000 1.0000
89.6400 287.0000 1.0000
89.6600 269.0000 1.0000
89.6800 275.0000 1.0000
89.7000 251.0000 1.0000
89.7200 259.0000 1.0000
89.7400 269.0000 1.0000
89.7600 271.0000 1.0000
89.7800 275.0000 1.0000
89.8000 236.0000 1.0000
89.8200 259.0000 1.0000
89.8400 304.0000 1.0000
89.8600 288.0000 1.0000
89.8800 286.0000 1.0000
89.9000 261.0000 1.0000
89.9200 263.0000 1.0000
89.9400 270.0000 1.0000
89.9600 294.0000 1.0000
89.9800 249.0000 1.0000
90.0000 293.0000 1.0000
*RAS_INT_END
*RAS_DATA_END
