*RAS_DATA_START
*RAS_HEADER_START
*DISP_FMT_X "%.2f"
*DISP_FMT_Y "%.0f"
*DISP_FULLSCALE "1434.0000000000"
*DISP_LINE_COLOR "255.0000000000"
*DISP_LINE_STYLE "0.0000000000"
*DISP_LINE_WIDTH "0.2500000000"
*DISP_NOTE "Collected Data-3"
*DISP_OFFSET_Y "0.0000000000"
*DISP_PEAKSEARCH_UNIT_Y "COUNTS"
*DISP_RANGE_BOTTOM "0.0000000000"
*DISP_RANGE_LEFT "10.0000000000"
*DISP_RANGE_LOGCUTOFF "0.0100000000"
*DISP_RANGE_RIGHT "90.0000000000"
*DISP_RANGE_TOP "1434.0000000000"
*DISP_SCALE_MODE_Y "0.0000000000"
*DISP_TAB_NAME "Theta/2-Theta"
*DISP_TITLE_Y "Intensity"
*DISP_UNIT_Y "COUNTS"
*DISP_WINDOW_NAME "MSG_MACROENGINE"
*FILE_COMMENT " "
*FILE_MD5 ""
*FILE_MEMO " "
*FILE_OPERATOR "Administrator"
*FILE_PART_ID "MEAS_PBEA_00223"
*FILE_SAMPLE "Magnetite"
*FILE_TYPE "RAS_RAW"
*FILE_USERGROUP "System Manager"
*FILE_VERSION "1.0000000000"
*HW_ATTACHMENT_ID "ATT1031"
*HW_ATTACHMENT_NAME "6サンプルチェンジャ|ASC-6"
*HW_COUNTER_ID-0 "CUT0021"
*HW_COUNTER_ID-1 "CUT0020"
*HW_COUNTER_ID-2 "CUT0020"
*HW_COUNTER_ID-3 "CMC0021"
*HW_COUNTER_NAME-0 "SC-70|SC-70"
*HW_COUNTER_NAME-1 "None|None"
*HW_COUNTER_NAME-2 "None|None"
*HW_COUNTER_NAME-3 "検出器モノクロメータ|Detector monochromator"
*HW_COUNTER_SELECT_NAME "SC-70|SC-70"
*HW_ECP_HV "714.0000000000"
*HW_ECP_HV_UNIT "V"
*HW_GONIOMETER_ID "GON0070"
*HW_GONIOMETER_NAME "MiniFlex 300/600|MiniFlex 300/600"
*HW_GONIOMETER_RADIUS-0 "79.0"
*HW_GONIOMETER_RADIUS-1 "91.5"
*HW_GONIOMETER_RADIUS-2 "150.0"
*HW_GONIOMETER_RADIUS-3 "0"
*HW_GONIOMETER_RADIUS-4 "103.4"
*HW_GONIOMETER_RADIUS-5 "150.0"
*HW_GONIOMETER_RADIUS-6 "46.6"
*HW_GONIOMETER_RADIUS-7 "160.0"
*HW_I_OPT_ID-0 "ISL0021"
*HW_I_OPT_ID-1 "ISO0021"
*HW_I_OPT_NAME-0 "発散スリット|Divergence slit"
*HW_I_OPT_NAME-1 "入射平行スリット|Incident parallel slit"
*HW_R_ATTENUATER_AUTOMODE "0"
*HW_R_OPT_ID-0 "RSS0021"
*HW_R_OPT_ID-1 "RSO0021"
*HW_R_OPT_ID-2 "RRS0021"
*HW_R_OPT_NAME-0 "散乱スリット|Scattering slit"
*HW_R_OPT_NAME-1 "受光平行スリット|Receiving soller slit"
*HW_R_OPT_NAME-2 "受光スリット|Receiving slit"
*HW_SAMPLE_HOLDER_ID "SMP0000"
*HW_SAMPLE_HOLDER_NAME "無し|None"
*HW_XG_CURRENT_MAX "50"
*HW_XG_CURRENT_MIN "2"
*HW_XG_CURRENT_RESOLUTION "2"
*HW_XG_CURRENT_UNIT "mA"
*HW_XG_FOCUS "1mm x 10mm"
*HW_XG_FOCUS_TYPE "Normal"
*HW_XG_ID "1062"
*HW_XG_NAME "300W/600W 封入管-A|300W/600W Sealed tube-A"
*HW_XG_TARGET_ATOMIC_NUMBER "29.0000000000"
*HW_XG_TARGET_NAME "Cu"
*HW_XG_TYPE "Compact"
*HW_XG_VOLTAGE_MAX "60"
*HW_XG_VOLTAGE_MIN "20"
*HW_XG_VOLTAGE_RESOLUTION "2"
*HW_XG_VOLTAGE_UNIT "kV"
*HW_XG_WATT_MAX "2.000"
*HW_XG_WATT_UNIT "kW"
*HW_XG_WAVE_LENGTH_ALPHA1 "1.540593"
*HW_XG_WAVE_LENGTH_ALPHA2 "1.544414"
*HW_XG_WAVE_LENGTH_BETA "1.392250"
*MEAS_COND_AXIS_NAME-0 "Theta/2-Theta"
*MEAS_COND_AXIS_NAME-1 "Spin"
*MEAS_COND_AXIS_NAME-2 "Change"
*MEAS_COND_AXIS_NAME-3 "Soller(inc.)"
*MEAS_COND_AXIS_NAME-4 "IHS"
*MEAS_COND_AXIS_NAME-5 "DS"
*MEAS_COND_AXIS_NAME-6 "SS"
*MEAS_COND_AXIS_NAME-7 "Soller(rec.)"
*MEAS_COND_AXIS_NAME-8 "RS"
*MEAS_COND_AXIS_NAME-9 "Filter"
*MEAS_COND_AXIS_NAME-10 "Monochromator"
*MEAS_COND_AXIS_NAME-11 "HV"
*MEAS_COND_AXIS_NAME-12 "PHA"
*MEAS_COND_AXIS_NAME_INTERNAL-0 "TwoThetaTheta"
*MEAS_COND_AXIS_NAME_INTERNAL-1 "Spin"
*MEAS_COND_AXIS_NAME_INTERNAL-2 "Change"
*MEAS_COND_AXIS_NAME_INTERNAL-3 "IncidentSollerSlit"
*MEAS_COND_AXIS_NAME_INTERNAL-4 "IncidentAxdSlit"
*MEAS_COND_AXIS_NAME_INTERNAL-5 "IncidentSlitBox"
*MEAS_COND_AXIS_NAME_INTERNAL-6 "ReceivingSlitBox1"
*MEAS_COND_AXIS_NAME_INTERNAL-7 "ReceivingSollerSlit"
*MEAS_COND_AXIS_NAME_INTERNAL-8 "ReceivingSlitBox2"
*MEAS_COND_AXIS_NAME_INTERNAL-9 "Filter"
*MEAS_COND_AXIS_NAME_INTERNAL-10 "CounterMonochromator"
*MEAS_COND_AXIS_NAME_INTERNAL-11 "HV"
*MEAS_COND_AXIS_NAME_INTERNAL-12 "PHA"
*MEAS_COND_AXIS_NAME_MAGICNO-0 "268632064.0000000000"
*MEAS_COND_AXIS_NAME_MAGICNO-1 "16842752.0000000000"
*MEAS_COND_AXIS_NAME_MAGICNO-2 "16842752.0000000000"
*MEAS_COND_AXIS_NAME_MAGICNO-3 "20971521.0000000000"
*MEAS_COND_AXIS_NAME_MAGICNO-4 "22020097.0000000000"
*MEAS_COND_AXIS_NAME_MAGICNO-5 "22020097.0000000000"
*MEAS_COND_AXIS_NAME_MAGICNO-6 "23068673.0000000000"
*MEAS_COND_AXIS_NAME_MAGICNO-7 "20971521.0000000000"
*MEAS_COND_AXIS_NAME_MAGICNO-8 "23068673.0000000000"
*MEAS_COND_AXIS_NAME_MAGICNO-9 "20971521.0000000000"
*MEAS_COND_AXIS_NAME_MAGICNO-10 "20971521.0000000000"
*MEAS_COND_AXIS_NAME_MAGICNO-11 "0.0000000000"
*MEAS_COND_AXIS_NAME_MAGICNO-12 "0.0000000000"
*MEAS_COND_AXIS_OFFSET-0 "0.0000000000"
*MEAS_COND_AXIS_OFFSET-1 "-"
*MEAS_COND_AXIS_OFFSET-2 "-"
*MEAS_COND_AXIS_OFFSET-3 "-"
*MEAS_COND_AXIS_OFFSET-4 "-"
*MEAS_COND_AXIS_OFFSET-5 "-"
*MEAS_COND_AXIS_OFFSET-6 "-"
*MEAS_COND_AXIS_OFFSET-7 "-"
*MEAS_COND_AXIS_OFFSET-8 "-"
*MEAS_COND_AXIS_OFFSET-9 "-"
*MEAS_COND_AXIS_OFFSET-10 "-"
*MEAS_COND_AXIS_OFFSET-11 "-"
*MEAS_COND_AXIS_OFFSET-12 "-"
*MEAS_COND_AXIS_POSITION-0 "90.0100000000"
*MEAS_COND_AXIS_POSITION-1 "0.0000000000"
*MEAS_COND_AXIS_POSITION-2 "5.0000000000"
*MEAS_COND_AXIS_POSITION-3 "2.5deg"
*MEAS_COND_AXIS_POSITION-4 "10.0mm"
*MEAS_COND_AXIS_POSITION-5 "1.250deg"
*MEAS_COND_AXIS_POSITION-6 "13.0mm(Open)"
*MEAS_COND_AXIS_POSITION-7 "5.0deg"
*MEAS_COND_AXIS_POSITION-8 "13.0mm"
*MEAS_COND_AXIS_POSITION-9 "None"
*MEAS_COND_AXIS_POSITION-10 "None"
*MEAS_COND_AXIS_POSITION-11 "714.0000000000"
*MEAS_COND_AXIS_POSITION-12 "568.7500000000"
*MEAS_COND_AXIS_UNIT-0 "deg"
*MEAS_COND_AXIS_UNIT-1 ""
*MEAS_COND_AXIS_UNIT-2 ""
*MEAS_COND_AXIS_UNIT-3 ""
*MEAS_COND_AXIS_UNIT-4 ""
*MEAS_COND_AXIS_UNIT-5 ""
*MEAS_COND_AXIS_UNIT-6 ""
*MEAS_COND_AXIS_UNIT-7 ""
*MEAS_COND_AXIS_UNIT-8 ""
*MEAS_COND_AXIS_UNIT-9 ""
*MEAS_COND_AXIS_UNIT-10 ""
*MEAS_COND_AXIS_UNIT-11 "V"
*MEAS_COND_AXIS_UNIT-12 "mV"
*MEAS_COND_CORRECTION_SLIT_COUNTERMONO "None"
*MEAS_COND_CORRECTION_SLIT_DS "1.250deg"
*MEAS_COND_CORRECTION_SLIT_FILTER "None"
*MEAS_COND_CORRECTION_SLIT_IHS "10.0mm"
*MEAS_COND_CORRECTION_SLIT_RS "13.0mm"
*MEAS_COND_CORRECTION_SLIT_SOLLER_INC "2.5deg"
*MEAS_COND_CORRECTION_SLIT_SOLLER_REC "5.0deg"
*MEAS_COND_CORRECTION_SLIT_SS "13.0mm"
*MEAS_COND_COUNTER_CNTLOSS_CORR "0.0000000000"
*MEAS_COND_COUNTER_PHABASE "568.7500000000"
*MEAS_COND_COUNTER_PHAWINDOW "926.2500000000"
*MEAS_COND_COUNTER_PHA_UNIT "mV"
*MEAS_COND_COUNTER_TAUDIFF "0.2500000000"
*MEAS_COND_COUNTER_TAUINT "0.7500000000"
*MEAS_COND_IRRADIATION_MODE "OFF"
*MEAS_COND_IRRADIATION_WIDTH ""
*MEAS_COND_OPT_ATTR " "
*MEAS_COND_OPT_NAME ""
*MEAS_COND_UNSYMMETRIC_MODE "OFF"
*MEAS_COND_XG_CURRENT "15.0000000000"
*MEAS_COND_XG_VOLTAGE "40.0000000000"
*MEAS_COND_XG_WAVE_TYPE "Ka"
*MEAS_DATA_COUNT "4001.0000000000"
*MEAS_SCAN_AXIS_X "Theta/2-Theta"
*MEAS_SCAN_AXIS_X_INTERNAL "TwoThetaTheta"
*MEAS_SCAN_END_TIME "03/07/24 15:59:09"
*MEAS_SCAN_MODE "CONTINUOUS"
*MEAS_SCAN_MONITOR "0"
*MEAS_SCAN_RESOLUTION_X "0.0025"
*MEAS_SCAN_SPEED "2.0000"
*MEAS_SCAN_SPEED_UNIT "deg/min"
*MEAS_SCAN_SPEED_USER "2.0000"
*MEAS_SCAN_START "10.0000000000"
*MEAS_SCAN_START_TIME "03/07/24 15:18:52"
*MEAS_SCAN_STEP "0.0200000000"
*MEAS_SCAN_STOP "90.0000000000"
*MEAS_SCAN_UNIT_X "deg"
*MEAS_SCAN_UNIT_Y "counts"
*SLIT_SYSTEM "0"
*RAS_HEADER_END
*RAS_INT_START
10.0000 869.0000 1.0000
10.0200 839.0000 1.0000
10.0400 832.0000 1.0000
10.0600 962.0000 1.0000
10.0800 877.0000 1.0000
10.1000 833.0000 1.0000
10.1200 912.0000 1.0000
10.1400 877.0000 1.0000
10.1600 848.0000 1.0000
10.1800 870.0000 1.0000
10.2000 881.0000 1.0000
10.2200 819.0000 1.0000
10.2400 858.0000 1.0000
10.2600 800.0000 1.0000
10.2800 884.0000 1.0000
10.3000 780.0000 1.0000
10.3200 958.0000 1.0000
10.3400 879.0000 1.0000
10.3600 855.0000 1.0000
10.3800 956.0000 1.0000
10.4000 893.0000 1.0000
10.4200 823.0000 1.0000
10.4400 885.0000 1.0000
10.4600 926.0000 1.0000
10.4800 899.0000 1.0000
10.5000 842.0000 1.0000
10.5200 810.0000 1.0000
10.5400 830.0000 1.0000
10.5600 931.0000 1.0000
10.5800 852.0000 1.0000
10.6000 859.0000 1.0000
10.6200 917.0000 1.0000
10.6400 796.0000 1.0000
10.6600 922.0000 1.0000
10.6800 782.0000 1.0000
10.7000 860.0000 1.0000
10.7200 806.0000 1.0000
10.7400 876.0000 1.0000
10.7600 837.0000 1.0000
10.7800 845.0000 1.0000
10.8000 834.0000 1.0000
10.8200 845.0000 1.0000
10.8400 843.0000 1.0000
10.8600 833.0000 1.0000
10.8800 845.0000 1.0000
10.9000 895.0000 1.0000
10.9200 812.0000 1.0000
10.9400 817.0000 1.0000
10.9600 826.0000 1.0000
10.9800 865.0000 1.0000
11.0000 802.0000 1.0000
11.0200 853.0000 1.0000
11.0400 882.0000 1.0000
11.0600 815.0000 1.0000
11.0800 850.0000 1.0000
11.1000 805.0000 1.0000
11.1200 841.0000 1.0000
11.1400 846.0000 1.0000
11.1600 824.0000 1.0000
11.1800 801.0000 1.0000
11.2000 805.0000 1.0000
11.2200 787.0000 1.0000
11.2400 775.0000 1.0000
11.2600 782.0000 1.0000
11.2800 748.0000 1.0000
11.3000 786.0000 1.0000
11.3200 859.0000 1.0000
11.3400 876.0000 1.0000
11.3600 849.0000 1.0000
11.3800 756.0000 1.0000
11.4000 791.0000 1.0000
11.4200 840.0000 1.0000
11.4400 803.0000 1.0000
11.4600 822.0000 1.0000
11.4800 818.0000 1.0000
11.5000 797.0000 1.0000
11.5200 820.0000 1.0000
11.5400 792.0000 1.0000
11.5600 817.0000 1.0000
11.5800 764.0000 1.0000
11.6000 782.0000 1.0000
11.6200 824.0000 1.0000
11.6400 797.0000 1.0000
11.6600 839.0000 1.0000
11.6800 881.0000 1.0000
11.7000 802.0000 1.0000
11.7200 790.0000 1.0000
11.7400 831.0000 1.0000
11.7600 833.0000 1.0000
11.7800 799.0000 1.0000
11.8000 832.0000 1.0000
11.8200 823.0000 1.0000
11.8400 785.0000 1.0000
11.8600 818.0000 1.0000
11.8800 793.0000 1.0000
11.9000 823.0000 1.0000
11.9200 772.0000 1.0000
11.9400 805.0000 1.0000
11.9600 762.0000 1.0000
11.9800 773.0000 1.0000
12.0000 843.0000 1.0000
12.0200 756.0000 1.0000
12.0400 784.0000 1.0000
12.0600 827.0000 1.0000
12.0800 808.0000 1.0000
12.1000 773.0000 1.0000
12.1200 699.0000 1.0000
12.1400 786.0000 1.0000
12.1600 804.0000 1.0000
12.1800 774.0000 1.0000
12.2000 809.0000 1.0000
12.2200 755.0000 1.0000
12.2400 744.0000 1.0000
12.2600 761.0000 1.0000
12.2800 798.0000 1.0000
12.3000 748.0000 1.0000
12.3200 805.0000 1.0000
12.3400 725.0000 1.0000
12.3600 817.0000 1.0000
12.3800 736.0000 1.0000
12.4000 760.0000 1.0000
12.4200 753.0000 1.0000
12.4400 792.0000 1.0000
12.4600 773.0000 1.0000
12.4800 814.0000 1.0000
12.5000 750.0000 1.0000
12.5200 793.0000 1.0000
12.5400 731.0000 1.0000
12.5600 757.0000 1.0000
12.5800 703.0000 1.0000
12.6000 784.0000 1.0000
12.6200 732.0000 1.0000
12.6400 805.0000 1.0000
12.6600 721.0000 1.0000
12.6800 764.0000 1.0000
12.7000 683.0000 1.0000
12.7200 762.0000 1.0000
12.7400 762.0000 1.0000
12.7600 789.0000 1.0000
12.7800 776.0000 1.0000
12.8000 709.0000 1.0000
12.8200 731.0000 1.0000
12.8400 742.0000 1.0000
12.8600 722.0000 1.0000
12.8800 718.0000 1.0000
12.9000 706.0000 1.0000
12.9200 754.0000 1.0000
12.9400 711.0000 1.0000
12.9600 699.0000 1.0000
12.9800 713.0000 1.0000
13.0000 799.0000 1.0000
13.0200 695.0000 1.0000
13.0400 766.0000 1.0000
13.0600 703.0000 1.0000
13.0800 672.0000 1.0000
13.1000 763.0000 1.0000
13.1200 722.0000 1.0000
13.1400 757.0000 1.0000
13.1600 752.0000 1.0000
13.1800 734.0000 1.0000
13.2000 720.0000 1.0000
13.2200 685.0000 1.0000
13.2400 755.0000 1.0000
13.2600 749.0000 1.0000
13.2800 700.0000 1.0000
13.3000 726.0000 1.0000
13.3200 711.0000 1.0000
13.3400 714.0000 1.0000
13.3600 724.0000 1.0000
13.3800 761.0000 1.0000
13.4000 739.0000 1.0000
13.4200 710.0000 1.0000
13.4400 753.0000 1.0000
13.4600 712.0000 1.0000
13.4800 707.0000 1.0000
13.5000 647.0000 1.0000
13.5200 635.0000 1.0000
13.5400 703.0000 1.0000
13.5600 712.0000 1.0000
13.5800 722.0000 1.0000
13.6000 718.0000 1.0000
13.6200 746.0000 1.0000
13.6400 707.0000 1.0000
13.6600 690.0000 1.0000
13.6800 689.0000 1.0000
13.7000 740.0000 1.0000
13.7200 704.0000 1.0000
13.7400 686.0000 1.0000
13.7600 647.0000 1.0000
13.7800 731.0000 1.0000
13.8000 686.0000 1.0000
13.8200 665.0000 1.0000
13.8400 700.0000 1.0000
13.8600 752.0000 1.0000
13.8800 700.0000 1.0000
13.9000 672.0000 1.0000
13.9200 653.0000 1.0000
13.9400 728.0000 1.0000
13.9600 696.0000 1.0000
13.9800 649.0000 1.0000
14.0000 660.0000 1.0000
14.0200 718.0000 1.0000
14.0400 697.0000 1.0000
14.0600 721.0000 1.0000
14.0800 698.0000 1.0000
14.1000 600.0000 1.0000
14.1200 688.0000 1.0000
14.1400 672.0000 1.0000
14.1600 728.0000 1.0000
14.1800 635.0000 1.0000
14.2000 616.0000 1.0000
14.2200 709.0000 1.0000
14.2400 703.0000 1.0000
14.2600 694.0000 1.0000
14.2800 688.0000 1.0000
14.3000 673.0000 1.0000
14.3200 673.0000 1.0000
14.3400 649.0000 1.0000
14.3600 652.0000 1.0000
14.3800 711.0000 1.0000
14.4000 710.0000 1.0000
14.4200 641.0000 1.0000
14.4400 668.0000 1.0000
14.4600 686.0000 1.0000
14.4800 685.0000 1.0000
14.5000 705.0000 1.0000
14.5200 634.0000 1.0000
14.5400 677.0000 1.0000
14.5600 699.0000 1.0000
14.5800 695.0000 1.0000
14.6000 692.0000 1.0000
14.6200 621.0000 1.0000
14.6400 690.0000 1.0000
14.6600 659.0000 1.0000
14.6800 701.0000 1.0000
14.7000 620.0000 1.0000
14.7200 626.0000 1.0000
14.7400 655.0000 1.0000
14.7600 668.0000 1.0000
14.7800 592.0000 1.0000
14.8000 669.0000 1.0000
14.8200 615.0000 1.0000
14.8400 667.0000 1.0000
14.8600 637.0000 1.0000
14.8800 594.0000 1.0000
14.9000 671.0000 1.0000
14.9200 629.0000 1.0000
14.9400 642.0000 1.0000
14.9600 621.0000 1.0000
14.9800 639.0000 1.0000
15.0000 671.0000 1.0000
15.0200 634.0000 1.0000
15.0400 640.0000 1.0000
15.0600 639.0000 1.0000
15.0800 690.0000 1.0000
15.1000 655.0000 1.0000
15.1200 622.0000 1.0000
15.1400 613.0000 1.0000
15.1600 677.0000 1.0000
15.1800 677.0000 1.0000
15.2000 639.0000 1.0000
15.2200 658.0000 1.0000
15.2400 563.0000 1.0000
15.2600 660.0000 1.0000
15.2800 642.0000 1.0000
15.3000 624.0000 1.0000
15.3200 599.0000 1.0000
15.3400 618.0000 1.0000
15.3600 666.0000 1.0000
15.3800 616.0000 1.0000
15.4000 633.0000 1.0000
15.4200 652.0000 1.0000
15.4400 598.0000 1.0000
15.4600 609.0000 1.0000
15.4800 596.0000 1.0000
15.5000 621.0000 1.0000
15.5200 654.0000 1.0000
15.5400 607.0000 1.0000
15.5600 614.0000 1.0000
15.5800 563.0000 1.0000
15.6000 594.0000 1.0000
15.6200 680.0000 1.0000
15.6400 607.0000 1.0000
15.6600 564.0000 1.0000
15.6800 604.0000 1.0000
15.7000 587.0000 1.0000
15.7200 603.0000 1.0000
15.7400 609.0000 1.0000
15.7600 617.0000 1.0000
15.7800 620.0000 1.0000
15.8000 590.0000 1.0000
15.8200 635.0000 1.0000
15.8400 653.0000 1.0000
15.8600 592.0000 1.0000
15.8800 656.0000 1.0000
15.9000 582.0000 1.0000
15.9200 591.0000 1.0000
15.9400 646.0000 1.0000
15.9600 596.0000 1.0000
15.9800 617.0000 1.0000
16.0000 618.0000 1.0000
16.0200 620.0000 1.0000
16.0400 590.0000 1.0000
16.0600 561.0000 1.0000
16.0800 605.0000 1.0000
16.1000 613.0000 1.0000
16.1200 595.0000 1.0000
16.1400 573.0000 1.0000
16.1600 597.0000 1.0000
16.1800 605.0000 1.0000
16.2000 576.0000 1.0000
16.2200 596.0000 1.0000
16.2400 602.0000 1.0000
16.2600 617.0000 1.0000
16.2800 616.0000 1.0000
16.3000 588.0000 1.0000
16.3200 566.0000 1.0000
16.3400 603.0000 1.0000
16.3600 578.0000 1.0000
16.3800 565.0000 1.0000
16.4000 616.0000 1.0000
16.4200 633.0000 1.0000
16.4400 554.0000 1.0000
16.4600 587.0000 1.0000
16.4800 620.0000 1.0000
16.5000 606.0000 1.0000
16.5200 581.0000 1.0000
16.5400 590.0000 1.0000
16.5600 577.0000 1.0000
16.5800 602.0000 1.0000
16.6000 620.0000 1.0000
16.6200 619.0000 1.0000
16.6400 569.0000 1.0000
16.6600 617.0000 1.0000
16.6800 599.0000 1.0000
16.7000 568.0000 1.0000
16.7200 543.0000 1.0000
16.7400 573.0000 1.0000
16.7600 568.0000 1.0000
16.7800 623.0000 1.0000
16.8000 559.0000 1.0000
16.8200 578.0000 1.0000
16.8400 554.0000 1.0000
16.8600 565.0000 1.0000
16.8800 579.0000 1.0000
16.9000 559.0000 1.0000
16.9200 549.0000 1.0000
16.9400 624.0000 1.0000
16.9600 549.0000 1.0000
16.9800 607.0000 1.0000
17.0000 562.0000 1.0000
17.0200 543.0000 1.0000
17.0400 541.0000 1.0000
17.0600 582.0000 1.0000
17.0800 589.0000 1.0000
17.1000 556.0000 1.0000
17.1200 570.0000 1.0000
17.1400 556.0000 1.0000
17.1600 522.0000 1.0000
17.1800 591.0000 1.0000
17.2000 581.0000 1.0000
17.2200 552.0000 1.0000
17.2400 559.0000 1.0000
17.2600 590.0000 1.0000
17.2800 523.0000 1.0000
17.3000 543.0000 1.0000
17.3200 538.0000 1.0000
17.3400 554.0000 1.0000
17.3600 575.0000 1.0000
17.3800 525.0000 1.0000
17.4000 599.0000 1.0000
17.4200 542.0000 1.0000
17.4400 576.0000 1.0000
17.4600 558.0000 1.0000
17.4800 526.0000 1.0000
17.5000 602.0000 1.0000
17.5200 564.0000 1.0000
17.5400 541.0000 1.0000
17.5600 591.0000 1.0000
17.5800 564.0000 1.0000
17.6000 541.0000 1.0000
17.6200 536.0000 1.0000
17.6400 548.0000 1.0000
17.6600 555.0000 1.0000
17.6800 557.0000 1.0000
17.7000 543.0000 1.0000
17.7200 533.0000 1.0000
17.7400 545.0000 1.0000
17.7600 544.0000 1.0000
17.7800 537.0000 1.0000
17.8000 542.0000 1.0000
17.8200 568.0000 1.0000
17.8400 545.0000 1.0000
17.8600 545.0000 1.0000
17.8800 572.0000 1.0000
17.9000 587.0000 1.0000
17.9200 600.0000 1.0000
17.9400 554.0000 1.0000
17.9600 563.0000 1.0000
17.9800 540.0000 1.0000
18.0000 565.0000 1.0000
18.0200 518.0000 1.0000
18.0400 568.0000 1.0000
18.0600 566.0000 1.0000
18.0800 601.0000 1.0000
18.1000 507.0000 1.0000
18.1200 544.0000 1.0000
18.1400 548.0000 1.0000
18.1600 567.0000 1.0000
18.1800 561.0000 1.0000
18.2000 550.0000 1.0000
18.2200 550.0000 1.0000
18.2400 555.0000 1.0000
18.2600 539.0000 1.0000
18.2800 571.0000 1.0000
18.3000 554.0000 1.0000
18.3200 559.0000 1.0000
18.3400 550.0000 1.0000
18.3600 568.0000 1.0000
18.3800 546.0000 1.0000
18.4000 533.0000 1.0000
18.4200 576.0000 1.0000
18.4400 524.0000 1.0000
18.4600 565.0000 1.0000
18.4800 536.0000 1.0000
18.5000 572.0000 1.0000
18.5200 540.0000 1.0000
18.5400 542.0000 1.0000
18.5600 592.0000 1.0000
18.5800 533.0000 1.0000
18.6000 604.0000 1.0000
18.6200 638.0000 1.0000
18.6400 601.0000 1.0000
18.6600 606.0000 1.0000
18.6800 634.0000 1.0000
18.7000 594.0000 1.0000
18.7200 598.0000 1.0000
18.7400 598.0000 1.0000
18.7600 604.0000 1.0000
18.7800 573.0000 1.0000
18.8000 616.0000 1.0000
18.8200 561.0000 1.0000
18.8400 521.0000 1.0000
18.8600 540.0000 1.0000
18.8800 539.0000 1.0000
18.9000 537.0000 1.0000
18.9200 590.0000 1.0000
18.9400 540.0000 1.0000
18.9600 552.0000 1.0000
18.9800 507.0000 1.0000
19.0000 565.0000 1.0000
19.0200 538.0000 1.0000
19.0400 565.0000 1.0000
19.0600 542.0000 1.0000
19.0800 514.0000 1.0000
19.1000 545.0000 1.0000
19.1200 535.0000 1.0000
19.1400 510.0000 1.0000
19.1600 536.0000 1.0000
19.1800 500.0000 1.0000
19.2000 547.0000 1.0000
19.2200 535.0000 1.0000
19.2400 555.0000 1.0000
19.2600 582.0000 1.0000
19.2800 508.0000 1.0000
19.3000 517.0000 1.0000
19.3200 558.0000 1.0000
19.3400 563.0000 1.0000
19.3600 530.0000 1.0000
19.3800 529.0000 1.0000
19.4000 532.0000 1.0000
19.4200 503.0000 1.0000
19.4400 528.0000 1.0000
19.4600 524.0000 1.0000
19.4800 523.0000 1.0000
19.5000 571.0000 1.0000
19.5200 524.0000 1.0000
19.5400 521.0000 1.0000
19.5600 528.0000 1.0000
19.5800 527.0000 1.0000
19.6000 542.0000 1.0000
19.6200 501.0000 1.0000
19.6400 526.0000 1.0000
19.6600 553.0000 1.0000
19.6800 523.0000 1.0000
19.7000 500.0000 1.0000
19.7200 518.0000 1.0000
19.7400 517.0000 1.0000
19.7600 493.0000 1.0000
19.7800 507.0000 1.0000
19.8000 565.0000 1.0000
19.8200 562.0000 1.0000
19.8400 491.0000 1.0000
19.8600 526.0000 1.0000
19.8800 551.0000 1.0000
19.9000 506.0000 1.0000
19.9200 517.0000 1.0000
19.9400 513.0000 1.0000
19.9600 503.0000 1.0000
19.9800 562.0000 1.0000
20.0000 551.0000 1.0000
20.0200 549.0000 1.0000
20.0400 530.0000 1.0000
20.0600 564.0000 1.0000
20.0800 526.0000 1.0000
20.1000 485.0000 1.0000
20.1200 495.0000 1.0000
20.1400 520.0000 1.0000
20.1600 562.0000 1.0000
20.1800 536.0000 1.0000
20.2000 530.0000 1.0000
20.2200 526.0000 1.0000
20.2400 514.0000 1.0000
20.2600 553.0000 1.0000
20.2800 530.0000 1.0000
20.3000 510.0000 1.0000
20.3200 532.0000 1.0000
20.3400 527.0000 1.0000
20.3600 556.0000 1.0000
20.3800 536.0000 1.0000
20.4000 498.0000 1.0000
20.4200 538.0000 1.0000
20.4400 535.0000 1.0000
20.4600 512.0000 1.0000
20.4800 536.0000 1.0000
20.5000 485.0000 1.0000
20.5200 520.0000 1.0000
20.5400 520.0000 1.0000
20.5600 530.0000 1.0000
20.5800 498.0000 1.0000
20.6000 508.0000 1.0000
20.6200 497.0000 1.0000
20.6400 563.0000 1.0000
20.6600 549.0000 1.0000
20.6800 496.0000 1.0000
20.7000 550.0000 1.0000
20.7200 494.0000 1.0000
20.7400 511.0000 1.0000
20.7600 519.0000 1.0000
20.7800 549.0000 1.0000
20.8000 507.0000 1.0000
20.8200 546.0000 1.0000
20.8400 551.0000 1.0000
20.8600 529.0000 1.0000
20.8800 532.0000 1.0000
20.9000 544.0000 1.0000
20.9200 521.0000 1.0000
20.9400 540.0000 1.0000
20.9600 562.0000 1.0000
20.9800 521.0000 1.0000
21.0000 520.0000 1.0000
21.0200 524.0000 1.0000
21.0400 530.0000 1.0000
21.0600 511.0000 1.0000
21.0800 524.0000 1.0000
21.1000 508.0000 1.0000
21.1200 519.0000 1.0000
21.1400 521.0000 1.0000
21.1600 561.0000 1.0000
21.1800 520.0000 1.0000
21.2000 566.0000 1.0000
21.2200 558.0000 1.0000
21.2400 569.0000 1.0000
21.2600 564.0000 1.0000
21.2800 564.0000 1.0000
21.3000 572.0000 1.0000
21.3200 561.0000 1.0000
21.3400 546.0000 1.0000
21.3600 533.0000 1.0000
21.3800 531.0000 1.0000
21.4000 529.0000 1.0000
21.4200 554.0000 1.0000
21.4400 537.0000 1.0000
21.4600 560.0000 1.0000
21.4800 490.0000 1.0000
21.5000 482.0000 1.0000
21.5200 521.0000 1.0000
21.5400 549.0000 1.0000
21.5600 541.0000 1.0000
21.5800 530.0000 1.0000
21.6000 533.0000 1.0000
21.6200 525.0000 1.0000
21.6400 529.0000 1.0000
21.6600 497.0000 1.0000
21.6800 571.0000 1.0000
21.7000 537.0000 1.0000
21.7200 548.0000 1.0000
21.7400 542.0000 1.0000
21.7600 551.0000 1.0000
21.7800 546.0000 1.0000
21.8000 489.0000 1.0000
21.8200 533.0000 1.0000
21.8400 515.0000 1.0000
21.8600 527.0000 1.0000
21.8800 551.0000 1.0000
21.9000 492.0000 1.0000
21.9200 494.0000 1.0000
21.9400 500.0000 1.0000
21.9600 547.0000 1.0000
21.9800 512.0000 1.0000
22.0000 560.0000 1.0000
22.0200 553.0000 1.0000
22.0400 540.0000 1.0000
22.0600 568.0000 1.0000
22.0800 509.0000 1.0000
22.1000 548.0000 1.0000
22.1200 516.0000 1.0000
22.1400 552.0000 1.0000
22.1600 485.0000 1.0000
22.1800 497.0000 1.0000
22.2000 529.0000 1.0000
22.2200 506.0000 1.0000
22.2400 518.0000 1.0000
22.2600 508.0000 1.0000
22.2800 530.0000 1.0000
22.3000 548.0000 1.0000
22.3200 495.0000 1.0000
22.3400 558.0000 1.0000
22.3600 523.0000 1.0000
22.3800 493.0000 1.0000
22.4000 579.0000 1.0000
22.4200 490.0000 1.0000
22.4400 527.0000 1.0000
22.4600 543.0000 1.0000
22.4800 535.0000 1.0000
22.5000 546.0000 1.0000
22.5200 502.0000 1.0000
22.5400 514.0000 1.0000
22.5600 548.0000 1.0000
22.5800 534.0000 1.0000
22.6000 555.0000 1.0000
22.6200 512.0000 1.0000
22.6400 487.0000 1.0000
22.6600 541.0000 1.0000
22.6800 561.0000 1.0000
22.7000 526.0000 1.0000
22.7200 509.0000 1.0000
22.7400 504.0000 1.0000
22.7600 556.0000 1.0000
22.7800 541.0000 1.0000
22.8000 523.0000 1.0000
22.8200 532.0000 1.0000
22.8400 491.0000 1.0000
22.8600 501.0000 1.0000
22.8800 561.0000 1.0000
22.9000 514.0000 1.0000
22.9200 561.0000 1.0000
22.9400 555.0000 1.0000
22.9600 535.0000 1.0000
22.9800 517.0000 1.0000
23.0000 530.0000 1.0000
23.0200 540.0000 1.0000
23.0400 536.0000 1.0000
23.0600 543.0000 1.0000
23.0800 563.0000 1.0000
23.1000 558.0000 1.0000
23.1200 510.0000 1.0000
23.1400 532.0000 1.0000
23.1600 535.0000 1.0000
23.1800 525.0000 1.0000
23.2000 488.0000 1.0000
23.2200 506.0000 1.0000
23.2400 485.0000 1.0000
23.2600 534.0000 1.0000
23.2800 534.0000 1.0000
23.3000 534.0000 1.0000
23.3200 484.0000 1.0000
23.3400 533.0000 1.0000
23.3600 580.0000 1.0000
23.3800 555.0000 1.0000
23.4000 570.0000 1.0000
23.4200 536.0000 1.0000
23.4400 507.0000 1.0000
23.4600 587.0000 1.0000
23.4800 514.0000 1.0000
23.5000 526.0000 1.0000
23.5200 501.0000 1.0000
23.5400 534.0000 1.0000
23.5600 510.0000 1.0000
23.5800 529.0000 1.0000
23.6000 553.0000 1.0000
23.6200 501.0000 1.0000
23.6400 513.0000 1.0000
23.6600 544.0000 1.0000
23.6800 543.0000 1.0000
23.7000 543.0000 1.0000
23.7200 537.0000 1.0000
23.7400 591.0000 1.0000
23.7600 507.0000 1.0000
23.7800 524.0000 1.0000
23.8000 563.0000 1.0000
23.8200 500.0000 1.0000
23.8400 505.0000 1.0000
23.8600 531.0000 1.0000
23.8800 510.0000 1.0000
23.9000 518.0000 1.0000
23.9200 524.0000 1.0000
23.9400 510.0000 1.0000
23.9600 496.0000 1.0000
23.9800 521.0000 1.0000
24.0000 545.0000 1.0000
24.0200 531.0000 1.0000
24.0400 537.0000 1.0000
24.0600 554.0000 1.0000
24.0800 519.0000 1.0000
24.1000 539.0000 1.0000
24.1200 526.0000 1.0000
24.1400 518.0000 1.0000
24.1600 548.0000 1.0000
24.1800 543.0000 1.0000
24.2000 500.0000 1.0000
24.2200 539.0000 1.0000
24.2400 537.0000 1.0000
24.2600 536.0000 1.0000
24.2800 549.0000 1.0000
24.3000 534.0000 1.0000
24.3200 486.0000 1.0000
24.3400 513.0000 1.0000
24.3600 583.0000 1.0000
24.3800 518.0000 1.0000
24.4000 555.0000 1.0000
24.4200 552.0000 1.0000
24.4400 534.0000 1.0000
24.4600 519.0000 1.0000
24.4800 530.0000 1.0000
24.5000 514.0000 1.0000
24.5200 551.0000 1.0000
24.5400 505.0000 1.0000
24.5600 547.0000 1.0000
24.5800 574.0000 1.0000
24.6000 566.0000 1.0000
24.6200 532.0000 1.0000
24.6400 524.0000 1.0000
24.6600 531.0000 1.0000
24.6800 526.0000 1.0000
24.7000 547.0000 1.0000
24.7200 530.0000 1.0000
24.7400 554.0000 1.0000
24.7600 566.0000 1.0000
24.7800 548.0000 1.0000
24.8000 555.0000 1.0000
24.8200 512.0000 1.0000
24.8400 528.0000 1.0000
24.8600 588.0000 1.0000
24.8800 510.0000 1.0000
24.9000 505.0000 1.0000
24.9200 512.0000 1.0000
24.9400 531.0000 1.0000
24.9600 539.0000 1.0000
24.9800 504.0000 1.0000
25.0000 540.0000 1.0000
25.0200 527.0000 1.0000
25.0400 517.0000 1.0000
25.0600 530.0000 1.0000
25.0800 541.0000 1.0000
25.1000 565.0000 1.0000
25.1200 525.0000 1.0000
25.1400 480.0000 1.0000
25.1600 512.0000 1.0000
25.1800 578.0000 1.0000
25.2000 501.0000 1.0000
25.2200 493.0000 1.0000
25.2400 544.0000 1.0000
25.2600 528.0000 1.0000
25.2800 568.0000 1.0000
25.3000 557.0000 1.0000
25.3200 526.0000 1.0000
25.3400 494.0000 1.0000
25.3600 539.0000 1.0000
25.3800 532.0000 1.0000
25.4000 553.0000 1.0000
25.4200 534.0000 1.0000
25.4400 592.0000 1.0000
25.4600 531.0000 1.0000
25.4800 524.0000 1.0000
25.5000 541.0000 1.0000
25.5200 564.0000 1.0000
25.5400 514.0000 1.0000
25.5600 545.0000 1.0000
25.5800 528.0000 1.0000
25.6000 543.0000 1.0000
25.6200 549.0000 1.0000
25.6400 560.0000 1.0000
25.6600 549.0000 1.0000
25.6800 562.0000 1.0000
25.7000 558.0000 1.0000
25.7200 532.0000 1.0000
25.7400 491.0000 1.0000
25.7600 588.0000 1.0000
25.7800 537.0000 1.0000
25.8000 531.0000 1.0000
25.8200 534.0000 1.0000
25.8400 532.0000 1.0000
25.8600 525.0000 1.0000
25.8800 563.0000 1.0000
25.9000 541.0000 1.0000
25.9200 533.0000 1.0000
25.9400 498.0000 1.0000
25.9600 528.0000 1.0000
25.9800 556.0000 1.0000
26.0000 554.0000 1.0000
26.0200 521.0000 1.0000
26.0400 493.0000 1.0000
26.0600 533.0000 1.0000
26.0800 535.0000 1.0000
26.1000 501.0000 1.0000
26.1200 499.0000 1.0000
26.1400 542.0000 1.0000
26.1600 506.0000 1.0000
26.1800 513.0000 1.0000
26.2000 533.0000 1.0000
26.2200 531.0000 1.0000
26.2400 560.0000 1.0000
26.2600 515.0000 1.0000
26.2800 543.0000 1.0000
26.3000 560.0000 1.0000
26.3200 536.0000 1.0000
26.3400 532.0000 1.0000
26.3600 572.0000 1.0000
26.3800 552.0000 1.0000
26.4000 562.0000 1.0000
26.4200 498.0000 1.0000
26.4400 519.0000 1.0000
26.4600 559.0000 1.0000
26.4800 497.0000 1.0000
26.5000 510.0000 1.0000
26.5200 523.0000 1.0000
26.5400 534.0000 1.0000
26.5600 516.0000 1.0000
26.5800 495.0000 1.0000
26.6000 489.0000 1.0000
26.6200 547.0000 1.0000
26.6400 548.0000 1.0000
26.6600 562.0000 1.0000
26.6800 572.0000 1.0000
26.7000 545.0000 1.0000
26.7200 557.0000 1.0000
26.7400 545.0000 1.0000
26.7600 539.0000 1.0000
26.7800 533.0000 1.0000
26.8000 526.0000 1.0000
26.8200 542.0000 1.0000
26.8400 547.0000 1.0000
26.8600 561.0000 1.0000
26.8800 560.0000 1.0000
26.9000 559.0000 1.0000
26.9200 531.0000 1.0000
26.9400 522.0000 1.0000
26.9600 601.0000 1.0000
26.9800 561.0000 1.0000
27.0000 507.0000 1.0000
27.0200 519.0000 1.0000
27.0400 566.0000 1.0000
27.0600 518.0000 1.0000
27.0800 544.0000 1.0000
27.1000 560.0000 1.0000
27.1200 542.0000 1.0000
27.1400 538.0000 1.0000
27.1600 569.0000 1.0000
27.1800 535.0000 1.0000
27.2000 514.0000 1.0000
27.2200 527.0000 1.0000
27.2400 535.0000 1.0000
27.2600 540.0000 1.0000
27.2800 533.0000 1.0000
27.3000 539.0000 1.0000
27.3200 522.0000 1.0000
27.3400 559.0000 1.0000
27.3600 598.0000 1.0000
27.3800 514.0000 1.0000
27.4000 545.0000 1.0000
27.4200 569.0000 1.0000
27.4400 556.0000 1.0000
27.4600 578.0000 1.0000
27.4800 568.0000 1.0000
27.5000 543.0000 1.0000
27.5200 524.0000 1.0000
27.5400 507.0000 1.0000
27.5600 558.0000 1.0000
27.5800 550.0000 1.0000
27.6000 575.0000 1.0000
27.6200 517.0000 1.0000
27.6400 573.0000 1.0000
27.6600 513.0000 1.0000
27.6800 517.0000 1.0000
27.7000 530.0000 1.0000
27.7200 549.0000 1.0000
27.7400 527.0000 1.0000
27.7600 492.0000 1.0000
27.7800 521.0000 1.0000
27.8000 521.0000 1.0000
27.8200 505.0000 1.0000
27.8400 544.0000 1.0000
27.8600 537.0000 1.0000
27.8800 508.0000 1.0000
27.9000 529.0000 1.0000
27.9200 507.0000 1.0000
27.9400 549.0000 1.0000
27.9600 588.0000 1.0000
27.9800 489.0000 1.0000
28.0000 561.0000 1.0000
28.0200 569.0000 1.0000
28.0400 506.0000 1.0000
28.0600 525.0000 1.0000
28.0800 498.0000 1.0000
28.1000 541.0000 1.0000
28.1200 508.0000 1.0000
28.1400 539.0000 1.0000
28.1600 509.0000 1.0000
28.1800 539.0000 1.0000
28.2000 518.0000 1.0000
28.2200 517.0000 1.0000
28.2400 547.0000 1.0000
28.2600 527.0000 1.0000
28.2800 544.0000 1.0000
28.3000 547.0000 1.0000
28.3200 518.0000 1.0000
28.3400 542.0000 1.0000
28.3600 536.0000 1.0000
28.3800 507.0000 1.0000
28.4000 539.0000 1.0000
28.4200 519.0000 1.0000
28.4400 531.0000 1.0000
28.4600 548.0000 1.0000
28.4800 535.0000 1.0000
28.5000 569.0000 1.0000
28.5200 505.0000 1.0000
28.5400 544.0000 1.0000
28.5600 542.0000 1.0000
28.5800 497.0000 1.0000
28.6000 510.0000 1.0000
28.6200 506.0000 1.0000
28.6400 534.0000 1.0000
28.6600 522.0000 1.0000
28.6800 504.0000 1.0000
28.7000 540.0000 1.0000
28.7200 523.0000 1.0000
28.7400 539.0000 1.0000
28.7600 527.0000 1.0000
28.7800 550.0000 1.0000
28.8000 487.0000 1.0000
28.8200 542.0000 1.0000
28.8400 554.0000 1.0000
28.8600 577.0000 1.0000
28.8800 531.0000 1.0000
28.9000 548.0000 1.0000
28.9200 554.0000 1.0000
28.9400 561.0000 1.0000
28.9600 528.0000 1.0000
28.9800 510.0000 1.0000
29.0000 549.0000 1.0000
29.0200 547.0000 1.0000
29.0400 503.0000 1.0000
29.0600 527.0000 1.0000
29.0800 528.0000 1.0000
29.1000 548.0000 1.0000
29.1200 531.0000 1.0000
29.1400 482.0000 1.0000
29.1600 553.0000 1.0000
29.1800 547.0000 1.0000
29.2000 520.0000 1.0000
29.2200 545.0000 1.0000
29.2400 502.0000 1.0000
29.2600 519.0000 1.0000
29.2800 538.0000 1.0000
29.3000 568.0000 1.0000
29.3200 555.0000 1.0000
29.3400 558.0000 1.0000
29.3600 540.0000 1.0000
29.3800 527.0000 1.0000
29.4000 514.0000 1.0000
29.4200 503.0000 1.0000
29.4400 513.0000 1.0000
29.4600 566.0000 1.0000
29.4800 542.0000 1.0000
29.5000 544.0000 1.0000
29.5200 593.0000 1.0000
29.5400 534.0000 1.0000
29.5600 541.0000 1.0000
29.5800 558.0000 1.0000
29.6000 542.0000 1.0000
29.6200 543.0000 1.0000
29.6400 514.0000 1.0000
29.6600 546.0000 1.0000
29.6800 560.0000 1.0000
29.7000 565.0000 1.0000
29.7200 537.0000 1.0000
29.7400 537.0000 1.0000
29.7600 530.0000 1.0000
29.7800 548.0000 1.0000
29.8000 579.0000 1.0000
29.8200 550.0000 1.0000
29.8400 531.0000 1.0000
29.8600 581.0000 1.0000
29.8800 546.0000 1.0000
29.9000 577.0000 1.0000
29.9200 547.0000 1.0000
29.9400 509.0000 1.0000
29.9600 546.0000 1.0000
29.9800 516.0000 1.0000
30.0000 529.0000 1.0000
30.0200 543.0000 1.0000
30.0400 516.0000 1.0000
30.0600 532.0000 1.0000
30.0800 537.0000 1.0000
30.1000 534.0000 1.0000
30.1200 546.0000 1.0000
30.1400 535.0000 1.0000
30.1600 531.0000 1.0000
30.1800 510.0000 1.0000
30.2000 529.0000 1.0000
30.2200 562.0000 1.0000
30.2400 595.0000 1.0000
30.2600 596.0000 1.0000
30.2800 607.0000 1.0000
30.3000 616.0000 1.0000
30.3200 594.0000 1.0000
30.3400 585.0000 1.0000
30.3600 581.0000 1.0000
30.3800 631.0000 1.0000
30.4000 579.0000 1.0000
30.4200 725.0000 1.0000
30.4400 702.0000 1.0000
30.4600 692.0000 1.0000
30.4800 672.0000 1.0000
30.5000 724.0000 1.0000
30.5200 777.0000 1.0000
30.5400 714.0000 1.0000
30.5600 678.0000 1.0000
30.5800 637.0000 1.0000
30.6000 630.0000 1.0000
30.6200 576.0000 1.0000
30.6400 593.0000 1.0000
30.6600 585.0000 1.0000
30.6800 585.0000 1.0000
30.7000 564.0000 1.0000
30.7200 567.0000 1.0000
30.7400 521.0000 1.0000
30.7600 563.0000 1.0000
30.7800 550.0000 1.0000
30.8000 555.0000 1.0000
30.8200 532.0000 1.0000
30.8400 533.0000 1.0000
30.8600 508.0000 1.0000
30.8800 517.0000 1.0000
30.9000 533.0000 1.0000
30.9200 509.0000 1.0000
30.9400 538.0000 1.0000
30.9600 544.0000 1.0000
30.9800 517.0000 1.0000
31.0000 575.0000 1.0000
31.0200 553.0000 1.0000
31.0400 558.0000 1.0000
31.0600 524.0000 1.0000
31.0800 521.0000 1.0000
31.1000 560.0000 1.0000
31.1200 574.0000 1.0000
31.1400 527.0000 1.0000
31.1600 541.0000 1.0000
31.1800 560.0000 1.0000
31.2000 491.0000 1.0000
31.2200 492.0000 1.0000
31.2400 532.0000 1.0000
31.2600 550.0000 1.0000
31.2800 563.0000 1.0000
31.3000 528.0000 1.0000
31.3200 529.0000 1.0000
31.3400 548.0000 1.0000
31.3600 524.0000 1.0000
31.3800 558.0000 1.0000
31.4000 517.0000 1.0000
31.4200 539.0000 1.0000
31.4400 576.0000 1.0000
31.4600 521.0000 1.0000
31.4800 530.0000 1.0000
31.5000 526.0000 1.0000
31.5200 536.0000 1.0000
31.5400 538.0000 1.0000
31.5600 548.0000 1.0000
31.5800 560.0000 1.0000
31.6000 521.0000 1.0000
31.6200 578.0000 1.0000
31.6400 562.0000 1.0000
31.6600 512.0000 1.0000
31.6800 509.0000 1.0000
31.7000 511.0000 1.0000
31.7200 492.0000 1.0000
31.7400 528.0000 1.0000
31.7600 554.0000 1.0000
31.7800 498.0000 1.0000
31.8000 503.0000 1.0000
31.8200 545.0000 1.0000
31.8400 548.0000 1.0000
31.8600 519.0000 1.0000
31.8800 512.0000 1.0000
31.9000 517.0000 1.0000
31.9200 499.0000 1.0000
31.9400 530.0000 1.0000
31.9600 564.0000 1.0000
31.9800 542.0000 1.0000
32.0000 598.0000 1.0000
32.0200 577.0000 1.0000
32.0400 542.0000 1.0000
32.0600 580.0000 1.0000
32.0800 554.0000 1.0000
32.1000 548.0000 1.0000
32.1200 543.0000 1.0000
32.1400 555.0000 1.0000
32.1600 511.0000 1.0000
32.1800 504.0000 1.0000
32.2000 538.0000 1.0000
32.2200 565.0000 1.0000
32.2400 524.0000 1.0000
32.2600 531.0000 1.0000
32.2800 564.0000 1.0000
32.3000 516.0000 1.0000
32.3200 568.0000 1.0000
32.3400 552.0000 1.0000
32.3600 495.0000 1.0000
32.3800 531.0000 1.0000
32.4000 530.0000 1.0000
32.4200 591.0000 1.0000
32.4400 544.0000 1.0000
32.4600 516.0000 1.0000
32.4800 563.0000 1.0000
32.5000 535.0000 1.0000
32.5200 534.0000 1.0000
32.5400 510.0000 1.0000
32.5600 600.0000 1.0000
32.5800 566.0000 1.0000
32.6000 530.0000 1.0000
32.6200 525.0000 1.0000
32.6400 553.0000 1.0000
32.6600 531.0000 1.0000
32.6800 544.0000 1.0000
32.7000 565.0000 1.0000
32.7200 523.0000 1.0000
32.7400 572.0000 1.0000
32.7600 552.0000 1.0000
32.7800 553.0000 1.0000
32.8000 542.0000 1.0000
32.8200 530.0000 1.0000
32.8400 513.0000 1.0000
32.8600 531.0000 1.0000
32.8800 542.0000 1.0000
32.9000 588.0000 1.0000
32.9200 553.0000 1.0000
32.9400 522.0000 1.0000
32.9600 533.0000 1.0000
32.9800 537.0000 1.0000
33.0000 525.0000 1.0000
33.0200 548.0000 1.0000
33.0400 525.0000 1.0000
33.0600 559.0000 1.0000
33.0800 563.0000 1.0000
33.1000 560.0000 1.0000
33.1200 559.0000 1.0000
33.1400 518.0000 1.0000
33.1600 548.0000 1.0000
33.1800 586.0000 1.0000
33.2000 568.0000 1.0000
33.2200 521.0000 1.0000
33.2400 563.0000 1.0000
33.2600 538.0000 1.0000
33.2800 526.0000 1.0000
33.3000 543.0000 1.0000
33.3200 512.0000 1.0000
33.3400 546.0000 1.0000
33.3600 534.0000 1.0000
33.3800 522.0000 1.0000
33.4000 551.0000 1.0000
33.4200 462.0000 1.0000
33.4400 542.0000 1.0000
33.4600 522.0000 1.0000
33.4800 607.0000 1.0000
33.5000 536.0000 1.0000
33.5200 537.0000 1.0000
33.5400 533.0000 1.0000
33.5600 558.0000 1.0000
33.5800 525.0000 1.0000
33.6000 546.0000 1.0000
33.6200 527.0000 1.0000
33.6400 523.0000 1.0000
33.6600 510.0000 1.0000
33.6800 527.0000 1.0000
33.7000 537.0000 1.0000
33.7200 520.0000 1.0000
33.7400 537.0000 1.0000
33.7600 537.0000 1.0000
33.7800 544.0000 1.0000
33.8000 595.0000 1.0000
33.8200 562.0000 1.0000
33.8400 558.0000 1.0000
33.8600 509.0000 1.0000
33.8800 544.0000 1.0000
33.9000 497.0000 1.0000
33.9200 545.0000 1.0000
33.9400 535.0000 1.0000
33.9600 542.0000 1.0000
33.9800 579.0000 1.0000
34.0000 569.0000 1.0000
34.0200 545.0000 1.0000
34.0400 536.0000 1.0000
34.0600 525.0000 1.0000
34.0800 556.0000 1.0000
34.1000 546.0000 1.0000
34.1200 501.0000 1.0000
34.1400 480.0000 1.0000
34.1600 564.0000 1.0000
34.1800 555.0000 1.0000
34.2000 528.0000 1.0000
34.2200 530.0000 1.0000
34.2400 561.0000 1.0000
34.2600 536.0000 1.0000
34.2800 519.0000 1.0000
34.3000 548.0000 1.0000
34.3200 550.0000 1.0000
34.3400 528.0000 1.0000
34.3600 524.0000 1.0000
34.3800 551.0000 1.0000
34.4000 521.0000 1.0000
34.4200 519.0000 1.0000
34.4400 531.0000 1.0000
34.4600 543.0000 1.0000
34.4800 510.0000 1.0000
34.5000 491.0000 1.0000
34.5200 544.0000 1.0000
34.5400 542.0000 1.0000
34.5600 522.0000 1.0000
34.5800 538.0000 1.0000
34.6000 527.0000 1.0000
34.6200 542.0000 1.0000
34.6400 540.0000 1.0000
34.6600 595.0000 1.0000
34.6800 545.0000 1.0000
34.7000 527.0000 1.0000
34.7200 533.0000 1.0000
34.7400 523.0000 1.0000
34.7600 497.0000 1.0000
34.7800 551.0000 1.0000
34.8000 524.0000 1.0000
34.8200 534.0000 1.0000
34.8400 568.0000 1.0000
34.8600 529.0000 1.0000
34.8800 552.0000 1.0000
34.9000 555.0000 1.0000
34.9200 514.0000 1.0000
34.9400 516.0000 1.0000
34.9600 593.0000 1.0000
34.9800 555.0000 1.0000
35.0000 546.0000 1.0000
35.0200 581.0000 1.0000
35.0400 603.0000 1.0000
35.0600 540.0000 1.0000
35.0800 518.0000 1.0000
35.1000 527.0000 1.0000
35.1200 560.0000 1.0000
35.1400 538.0000 1.0000
35.1600 503.0000 1.0000
35.1800 569.0000 1.0000
35.2000 549.0000 1.0000
35.2200 563.0000 1.0000
35.2400 559.0000 1.0000
35.2600 552.0000 1.0000
35.2800 587.0000 1.0000
35.3000 592.0000 1.0000
35.3200 530.0000 1.0000
35.3400 511.0000 1.0000
35.3600 580.0000 1.0000
35.3800 582.0000 1.0000
35.4000 600.0000 1.0000
35.4200 599.0000 1.0000
35.4400 570.0000 1.0000
35.4600 587.0000 1.0000
35.4800 534.0000 1.0000
35.5000 592.0000 1.0000
35.5200 646.0000 1.0000
35.5400 616.0000 1.0000
35.5600 646.0000 1.0000
35.5800 684.0000 1.0000
35.6000 716.0000 1.0000
35.6200 738.0000 1.0000
35.6400 733.0000 1.0000
35.6600 782.0000 1.0000
35.6800 815.0000 1.0000
35.7000 875.0000 1.0000
35.7200 940.0000 1.0000
35.7400 1041.0000 1.0000
35.7600 1093.0000 1.0000
35.7800 1087.0000 1.0000
35.8000 1145.0000 1.0000
35.8200 1195.0000 1.0000
35.8400 1176.0000 1.0000
35.8600 1164.0000 1.0000
35.8800 1064.0000 1.0000
35.9000 1100.0000 1.0000
35.9200 1017.0000 1.0000
35.9400 917.0000 1.0000
35.9600 756.0000 1.0000
35.9800 845.0000 1.0000
36.0000 769.0000 1.0000
36.0200 654.0000 1.0000
36.0400 747.0000 1.0000
36.0600 732.0000 1.0000
36.0800 704.0000 1.0000
36.1000 623.0000 1.0000
36.1200 657.0000 1.0000
36.1400 608.0000 1.0000
36.1600 607.0000 1.0000
36.1800 620.0000 1.0000
36.2000 571.0000 1.0000
36.2200 624.0000 1.0000
36.2400 646.0000 1.0000
36.2600 589.0000 1.0000
36.2800 617.0000 1.0000
36.3000 588.0000 1.0000
36.3200 571.0000 1.0000
36.3400 557.0000 1.0000
36.3600 579.0000 1.0000
36.3800 544.0000 1.0000
36.4000 549.0000 1.0000
36.4200 542.0000 1.0000
36.4400 547.0000 1.0000
36.4600 557.0000 1.0000
36.4800 526.0000 1.0000
36.5000 558.0000 1.0000
36.5200 545.0000 1.0000
36.5400 512.0000 1.0000
36.5600 545.0000 1.0000
36.5800 557.0000 1.0000
36.6000 584.0000 1.0000
36.6200 580.0000 1.0000
36.6400 578.0000 1.0000
36.6600 581.0000 1.0000
36.6800 546.0000 1.0000
36.7000 539.0000 1.0000
36.7200 532.0000 1.0000
36.7400 556.0000 1.0000
36.7600 565.0000 1.0000
36.7800 592.0000 1.0000
36.8000 518.0000 1.0000
36.8200 559.0000 1.0000
36.8400 581.0000 1.0000
36.8600 576.0000 1.0000
36.8800 539.0000 1.0000
36.9000 545.0000 1.0000
36.9200 573.0000 1.0000
36.9400 576.0000 1.0000
36.9600 537.0000 1.0000
36.9800 577.0000 1.0000
37.0000 586.0000 1.0000
37.0200 578.0000 1.0000
37.0400 514.0000 1.0000
37.0600 531.0000 1.0000
37.0800 495.0000 1.0000
37.1000 589.0000 1.0000
37.1200 562.0000 1.0000
37.1400 572.0000 1.0000
37.1600 596.0000 1.0000
37.1800 514.0000 1.0000
37.2000 539.0000 1.0000
37.2200 556.0000 1.0000
37.2400 557.0000 1.0000
37.2600 564.0000 1.0000
37.2800 596.0000 1.0000
37.3000 557.0000 1.0000
37.3200 585.0000 1.0000
37.3400 537.0000 1.0000
37.3600 545.0000 1.0000
37.3800 594.0000 1.0000
37.4000 576.0000 1.0000
37.4200 564.0000 1.0000
37.4400 540.0000 1.0000
37.4600 594.0000 1.0000
37.4800 533.0000 1.0000
37.5000 537.0000 1.0000
37.5200 551.0000 1.0000
37.5400 553.0000 1.0000
37.5600 567.0000 1.0000
37.5800 556.0000 1.0000
37.6000 543.0000 1.0000
37.6200 575.0000 1.0000
37.6400 616.0000 1.0000
37.6600 583.0000 1.0000
37.6800 536.0000 1.0000
37.7000 543.0000 1.0000
37.7200 568.0000 1.0000
37.7400 588.0000 1.0000
37.7600 567.0000 1.0000
37.7800 507.0000 1.0000
37.8000 551.0000 1.0000
37.8200 538.0000 1.0000
37.8400 538.0000 1.0000
37.8600 541.0000 1.0000
37.8800 577.0000 1.0000
37.9000 532.0000 1.0000
37.9200 567.0000 1.0000
37.9400 542.0000 1.0000
37.9600 538.0000 1.0000
37.9800 525.0000 1.0000
38.0000 520.0000 1.0000
38.0200 539.0000 1.0000
38.0400 472.0000 1.0000
38.0600 519.0000 1.0000
38.0800 529.0000 1.0000
38.1000 523.0000 1.0000
38.1200 540.0000 1.0000
38.1400 587.0000 1.0000
38.1600 522.0000 1.0000
38.1800 535.0000 1.0000
38.2000 562.0000 1.0000
38.2200 534.0000 1.0000
38.2400 578.0000 1.0000
38.2600 538.0000 1.0000
38.2800 527.0000 1.0000
38.3000 547.0000 1.0000
38.3200 563.0000 1.0000
38.3400 544.0000 1.0000
38.3600 563.0000 1.0000
38.3800 557.0000 1.0000
38.4000 540.0000 1.0000
38.4200 521.0000 1.0000
38.4400 587.0000 1.0000
38.4600 515.0000 1.0000
38.4800 545.0000 1.0000
38.5000 555.0000 1.0000
38.5200 520.0000 1.0000
38.5400 504.0000 1.0000
38.5600 540.0000 1.0000
38.5800 565.0000 1.0000
38.6000 569.0000 1.0000
38.6200 518.0000 1.0000
38.6400 522.0000 1.0000
38.6600 538.0000 1.0000
38.6800 518.0000 1.0000
38.7000 534.0000 1.0000
38.7200 519.0000 1.0000
38.7400 526.0000 1.0000
38.7600 565.0000 1.0000
38.7800 528.0000 1.0000
38.8000 563.0000 1.0000
38.8200 536.0000 1.0000
38.8400 567.0000 1.0000
38.8600 542.0000 1.0000
38.8800 577.0000 1.0000
38.9000 491.0000 1.0000
38.9200 520.0000 1.0000
38.9400 520.0000 1.0000
38.9600 552.0000 1.0000
38.9800 551.0000 1.0000
39.0000 534.0000 1.0000
39.0200 579.0000 1.0000
39.0400 531.0000 1.0000
39.0600 531.0000 1.0000
39.0800 533.0000 1.0000
39.1000 542.0000 1.0000
39.1200 520.0000 1.0000
39.1400 530.0000 1.0000
39.1600 553.0000 1.0000
39.1800 543.0000 1.0000
39.2000 509.0000 1.0000
39.2200 502.0000 1.0000
39.2400 553.0000 1.0000
39.2600 571.0000 1.0000
39.2800 543.0000 1.0000
39.3000 518.0000 1.0000
39.3200 551.0000 1.0000
39.3400 539.0000 1.0000
39.3600 570.0000 1.0000
39.3800 587.0000 1.0000
39.4000 566.0000 1.0000
39.4200 562.0000 1.0000
39.4400 516.0000 1.0000
39.4600 542.0000 1.0000
39.4800 531.0000 1.0000
39.5000 542.0000 1.0000
39.5200 588.0000 1.0000
39.5400 517.0000 1.0000
39.5600 589.0000 1.0000
39.5800 541.0000 1.0000
39.6000 555.0000 1.0000
39.6200 478.0000 1.0000
39.6400 552.0000 1.0000
39.6600 590.0000 1.0000
39.6800 558.0000 1.0000
39.7000 544.0000 1.0000
39.7200 526.0000 1.0000
39.7400 568.0000 1.0000
39.7600 524.0000 1.0000
39.7800 540.0000 1.0000
39.8000 502.0000 1.0000
39.8200 512.0000 1.0000
39.8400 513.0000 1.0000
39.8600 549.0000 1.0000
39.8800 550.0000 1.0000
39.9000 572.0000 1.0000
39.9200 516.0000 1.0000
39.9400 524.0000 1.0000
39.9600 523.0000 1.0000
39.9800 529.0000 1.0000
40.0000 537.0000 1.0000
40.0200 545.0000 1.0000
40.0400 547.0000 1.0000
40.0600 540.0000 1.0000
40.0800 561.0000 1.0000
40.1000 556.0000 1.0000
40.1200 561.0000 1.0000
40.1400 508.0000 1.0000
40.1600 545.0000 1.0000
40.1800 559.0000 1.0000
40.2000 501.0000 1.0000
40.2200 499.0000 1.0000
40.2400 526.0000 1.0000
40.2600 507.0000 1.0000
40.2800 582.0000 1.0000
40.3000 541.0000 1.0000
40.3200 563.0000 1.0000
40.3400 546.0000 1.0000
40.3600 531.0000 1.0000
40.3800 542.0000 1.0000
40.4000 552.0000 1.0000
40.4200 563.0000 1.0000
40.4400 562.0000 1.0000
40.4600 547.0000 1.0000
40.4800 559.0000 1.0000
40.5000 549.0000 1.0000
40.5200 569.0000 1.0000
40.5400 550.0000 1.0000
40.5600 580.0000 1.0000
40.5800 564.0000 1.0000
40.6000 525.0000 1.0000
40.6200 531.0000 1.0000
40.6400 534.0000 1.0000
40.6600 553.0000 1.0000
40.6800 573.0000 1.0000
40.7000 545.0000 1.0000
40.7200 519.0000 1.0000
40.7400 554.0000 1.0000
40.7600 545.0000 1.0000
40.7800 533.0000 1.0000
40.8000 558.0000 1.0000
40.8200 517.0000 1.0000
40.8400 531.0000 1.0000
40.8600 545.0000 1.0000
40.8800 553.0000 1.0000
40.9000 548.0000 1.0000
40.9200 487.0000 1.0000
40.9400 541.0000 1.0000
40.9600 526.0000 1.0000
40.9800 596.0000 1.0000
41.0000 565.0000 1.0000
41.0200 526.0000 1.0000
41.0400 513.0000 1.0000
41.0600 564.0000 1.0000
41.0800 546.0000 1.0000
41.1000 542.0000 1.0000
41.1200 562.0000 1.0000
41.1400 569.0000 1.0000
41.1600 488.0000 1.0000
41.1800 543.0000 1.0000
41.2000 593.0000 1.0000
41.2200 544.0000 1.0000
41.2400 560.0000 1.0000
41.2600 573.0000 1.0000
41.2800 529.0000 1.0000
41.3000 569.0000 1.0000
41.3200 521.0000 1.0000
41.3400 527.0000 1.0000
41.3600 573.0000 1.0000
41.3800 542.0000 1.0000
41.4000 530.0000 1.0000
41.4200 543.0000 1.0000
41.4400 530.0000 1.0000
41.4600 499.0000 1.0000
41.4800 509.0000 1.0000
41.5000 513.0000 1.0000
41.5200 502.0000 1.0000
41.5400 510.0000 1.0000
41.5600 578.0000 1.0000
41.5800 586.0000 1.0000
41.6000 610.0000 1.0000
41.6200 503.0000 1.0000
41.6400 533.0000 1.0000
41.6600 520.0000 1.0000
41.6800 551.0000 1.0000
41.7000 559.0000 1.0000
41.7200 601.0000 1.0000
41.7400 515.0000 1.0000
41.7600 566.0000 1.0000
41.7800 512.0000 1.0000
41.8000 520.0000 1.0000
41.8200 516.0000 1.0000
41.8400 578.0000 1.0000
41.8600 560.0000 1.0000
41.8800 529.0000 1.0000
41.9000 536.0000 1.0000
41.9200 567.0000 1.0000
41.9400 516.0000 1.0000
41.9600 569.0000 1.0000
41.9800 542.0000 1.0000
42.0000 542.0000 1.0000
42.0200 557.0000 1.0000
42.0400 531.0000 1.0000
42.0600 522.0000 1.0000
42.0800 577.0000 1.0000
42.1000 565.0000 1.0000
42.1200 541.0000 1.0000
42.1400 536.0000 1.0000
42.1600 548.0000 1.0000
42.1800 492.0000 1.0000
42.2000 563.0000 1.0000
42.2200 563.0000 1.0000
42.2400 523.0000 1.0000
42.2600 559.0000 1.0000
42.2800 568.0000 1.0000
42.3000 553.0000 1.0000
42.3200 533.0000 1.0000
42.3400 542.0000 1.0000
42.3600 525.0000 1.0000
42.3800 526.0000 1.0000
42.4000 533.0000 1.0000
42.4200 545.0000 1.0000
42.4400 546.0000 1.0000
42.4600 581.0000 1.0000
42.4800 537.0000 1.0000
42.5000 552.0000 1.0000
42.5200 532.0000 1.0000
42.5400 560.0000 1.0000
42.5600 560.0000 1.0000
42.5800 556.0000 1.0000
42.6000 527.0000 1.0000
42.6200 570.0000 1.0000
42.6400 571.0000 1.0000
42.6600 523.0000 1.0000
42.6800 572.0000 1.0000
42.7000 562.0000 1.0000
42.7200 539.0000 1.0000
42.7400 582.0000 1.0000
42.7600 558.0000 1.0000
42.7800 522.0000 1.0000
42.8000 607.0000 1.0000
42.8200 606.0000 1.0000
42.8400 572.0000 1.0000
42.8600 592.0000 1.0000
42.8800 513.0000 1.0000
42.9000 537.0000 1.0000
42.9200 532.0000 1.0000
42.9400 533.0000 1.0000
42.9600 540.0000 1.0000
42.9800 529.0000 1.0000
43.0000 543.0000 1.0000
43.0200 530.0000 1.0000
43.0400 548.0000 1.0000
43.0600 570.0000 1.0000
43.0800 541.0000 1.0000
43.1000 580.0000 1.0000
43.1200 576.0000 1.0000
43.1400 559.0000 1.0000
43.1600 541.0000 1.0000
43.1800 564.0000 1.0000
43.2000 573.0000 1.0000
43.2200 550.0000 1.0000
43.2400 609.0000 1.0000
43.2600 591.0000 1.0000
43.2800 610.0000 1.0000
43.3000 642.0000 1.0000
43.3200 618.0000 1.0000
43.3400 642.0000 1.0000
43.3600 627.0000 1.0000
43.3800 695.0000 1.0000
43.4000 684.0000 1.0000
43.4200 614.0000 1.0000
43.4400 702.0000 1.0000
43.4600 670.0000 1.0000
43.4800 665.0000 1.0000
43.5000 661.0000 1.0000
43.5200 619.0000 1.0000
43.5400 609.0000 1.0000
43.5600 625.0000 1.0000
43.5800 649.0000 1.0000
43.6000 625.0000 1.0000
43.6200 644.0000 1.0000
43.6400 582.0000 1.0000
43.6600 595.0000 1.0000
43.6800 554.0000 1.0000
43.7000 552.0000 1.0000
43.7200 568.0000 1.0000
43.7400 564.0000 1.0000
43.7600 584.0000 1.0000
43.7800 573.0000 1.0000
43.8000 531.0000 1.0000
43.8200 554.0000 1.0000
43.8400 555.0000 1.0000
43.8600 552.0000 1.0000
43.8800 541.0000 1.0000
43.9000 531.0000 1.0000
43.9200 558.0000 1.0000
43.9400 587.0000 1.0000
43.9600 564.0000 1.0000
43.9800 550.0000 1.0000
44.0000 545.0000 1.0000
44.0200 598.0000 1.0000
44.0400 590.0000 1.0000
44.0600 551.0000 1.0000
44.0800 574.0000 1.0000
44.1000 576.0000 1.0000
44.1200 510.0000 1.0000
44.1400 509.0000 1.0000
44.1600 541.0000 1.0000
44.1800 542.0000 1.0000
44.2000 534.0000 1.0000
44.2200 558.0000 1.0000
44.2400 564.0000 1.0000
44.2600 591.0000 1.0000
44.2800 571.0000 1.0000
44.3000 557.0000 1.0000
44.3200 541.0000 1.0000
44.3400 517.0000 1.0000
44.3600 539.0000 1.0000
44.3800 560.0000 1.0000
44.4000 522.0000 1.0000
44.4200 570.0000 1.0000
44.4400 570.0000 1.0000
44.4600 532.0000 1.0000
44.4800 584.0000 1.0000
44.5000 534.0000 1.0000
44.5200 557.0000 1.0000
44.5400 544.0000 1.0000
44.5600 551.0000 1.0000
44.5800 557.0000 1.0000
44.6000 572.0000 1.0000
44.6200 547.0000 1.0000
44.6400 514.0000 1.0000
44.6600 531.0000 1.0000
44.6800 538.0000 1.0000
44.7000 556.0000 1.0000
44.7200 566.0000 1.0000
44.7400 509.0000 1.0000
44.7600 547.0000 1.0000
44.7800 562.0000 1.0000
44.8000 565.0000 1.0000
44.8200 553.0000 1.0000
44.8400 544.0000 1.0000
44.8600 529.0000 1.0000
44.8800 518.0000 1.0000
44.9000 534.0000 1.0000
44.9200 515.0000 1.0000
44.9400 541.0000 1.0000
44.9600 562.0000 1.0000
44.9800 574.0000 1.0000
45.0000 545.0000 1.0000
45.0200 570.0000 1.0000
45.0400 559.0000 1.0000
45.0600 566.0000 1.0000
45.0800 544.0000 1.0000
45.1000 518.0000 1.0000
45.1200 577.0000 1.0000
45.1400 556.0000 1.0000
45.1600 504.0000 1.0000
45.1800 576.0000 1.0000
45.2000 518.0000 1.0000
45.2200 551.0000 1.0000
45.2400 544.0000 1.0000
45.2600 536.0000 1.0000
45.2800 574.0000 1.0000
45.3000 569.0000 1.0000
45.3200 543.0000 1.0000
45.3400 527.0000 1.0000
45.3600 540.0000 1.0000
45.3800 526.0000 1.0000
45.4000 551.0000 1.0000
45.4200 563.0000 1.0000
45.4400 581.0000 1.0000
45.4600 570.0000 1.0000
45.4800 517.0000 1.0000
45.5000 540.0000 1.0000
45.5200 544.0000 1.0000
45.5400 529.0000 1.0000
45.5600 570.0000 1.0000
45.5800 582.0000 1.0000
45.6000 499.0000 1.0000
45.6200 536.0000 1.0000
45.6400 536.0000 1.0000
45.6600 512.0000 1.0000
45.6800 542.0000 1.0000
45.7000 557.0000 1.0000
45.7200 553.0000 1.0000
45.7400 533.0000 1.0000
45.7600 522.0000 1.0000
45.7800 535.0000 1.0000
45.8000 522.0000 1.0000
45.8200 539.0000 1.0000
45.8400 523.0000 1.0000
45.8600 570.0000 1.0000
45.8800 527.0000 1.0000
45.9000 537.0000 1.0000
45.9200 557.0000 1.0000
45.9400 562.0000 1.0000
45.9600 560.0000 1.0000
45.9800 532.0000 1.0000
46.0000 521.0000 1.0000
46.0200 580.0000 1.0000
46.0400 582.0000 1.0000
46.0600 567.0000 1.0000
46.0800 545.0000 1.0000
46.1000 586.0000 1.0000
46.1200 519.0000 1.0000
46.1400 577.0000 1.0000
46.1600 547.0000 1.0000
46.1800 557.0000 1.0000
46.2000 577.0000 1.0000
46.2200 550.0000 1.0000
46.2400 560.0000 1.0000
46.2600 569.0000 1.0000
46.2800 559.0000 1.0000
46.3000 519.0000 1.0000
46.3200 541.0000 1.0000
46.3400 566.0000 1.0000
46.3600 533.0000 1.0000
46.3800 531.0000 1.0000
46.4000 546.0000 1.0000
46.4200 497.0000 1.0000
46.4400 494.0000 1.0000
46.4600 559.0000 1.0000
46.4800 531.0000 1.0000
46.5000 552.0000 1.0000
46.5200 534.0000 1.0000
46.5400 495.0000 1.0000
46.5600 553.0000 1.0000
46.5800 503.0000 1.0000
46.6000 564.0000 1.0000
46.6200 546.0000 1.0000
46.6400 576.0000 1.0000
46.6600 542.0000 1.0000
46.6800 529.0000 1.0000
46.7000 535.0000 1.0000
46.7200 555.0000 1.0000
46.7400 564.0000 1.0000
46.7600 541.0000 1.0000
46.7800 548.0000 1.0000
46.8000 556.0000 1.0000
46.8200 548.0000 1.0000
46.8400 577.0000 1.0000
46.8600 562.0000 1.0000
46.8800 529.0000 1.0000
46.9000 547.0000 1.0000
46.9200 542.0000 1.0000
46.9400 516.0000 1.0000
46.9600 533.0000 1.0000
46.9800 566.0000 1.0000
47.0000 503.0000 1.0000
47.0200 581.0000 1.0000
47.0400 539.0000 1.0000
47.0600 556.0000 1.0000
47.0800 544.0000 1.0000
47.1000 517.0000 1.0000
47.1200 552.0000 1.0000
47.1400 542.0000 1.0000
47.1600 541.0000 1.0000
47.1800 555.0000 1.0000
47.2000 550.0000 1.0000
47.2200 552.0000 1.0000
47.2400 546.0000 1.0000
47.2600 564.0000 1.0000
47.2800 577.0000 1.0000
47.3000 553.0000 1.0000
47.3200 563.0000 1.0000
47.3400 593.0000 1.0000
47.3600 557.0000 1.0000
47.3800 558.0000 1.0000
47.4000 556.0000 1.0000
47.4200 556.0000 1.0000
47.4400 569.0000 1.0000
47.4600 538.0000 1.0000
47.4800 599.0000 1.0000
47.5000 578.0000 1.0000
47.5200 529.0000 1.0000
47.5400 520.0000 1.0000
47.5600 622.0000 1.0000
47.5800 546.0000 1.0000
47.6000 499.0000 1.0000
47.6200 514.0000 1.0000
47.6400 517.0000 1.0000
47.6600 504.0000 1.0000
47.6800 546.0000 1.0000
47.7000 509.0000 1.0000
47.7200 544.0000 1.0000
47.7400 549.0000 1.0000
47.7600 576.0000 1.0000
47.7800 522.0000 1.0000
47.8000 538.0000 1.0000
47.8200 505.0000 1.0000
47.8400 577.0000 1.0000
47.8600 549.0000 1.0000
47.8800 537.0000 1.0000
47.9000 548.0000 1.0000
47.9200 516.0000 1.0000
47.9400 549.0000 1.0000
47.9600 540.0000 1.0000
47.9800 548.0000 1.0000
48.0000 550.0000 1.0000
48.0200 553.0000 1.0000
48.0400 561.0000 1.0000
48.0600 529.0000 1.0000
48.0800 535.0000 1.0000
48.1000 543.0000 1.0000
48.1200 548.0000 1.0000
48.1400 560.0000 1.0000
48.1600 580.0000 1.0000
48.1800 506.0000 1.0000
48.2000 571.0000 1.0000
48.2200 540.0000 1.0000
48.2400 547.0000 1.0000
48.2600 577.0000 1.0000
48.2800 547.0000 1.0000
48.3000 539.0000 1.0000
48.3200 548.0000 1.0000
48.3400 524.0000 1.0000
48.3600 569.0000 1.0000
48.3800 531.0000 1.0000
48.4000 580.0000 1.0000
48.4200 558.0000 1.0000
48.4400 545.0000 1.0000
48.4600 542.0000 1.0000
48.4800 528.0000 1.0000
48.5000 586.0000 1.0000
48.5200 539.0000 1.0000
48.5400 546.0000 1.0000
48.5600 559.0000 1.0000
48.5800 526.0000 1.0000
48.6000 544.0000 1.0000
48.6200 498.0000 1.0000
48.6400 553.0000 1.0000
48.6600 524.0000 1.0000
48.6800 513.0000 1.0000
48.7000 575.0000 1.0000
48.7200 513.0000 1.0000
48.7400 490.0000 1.0000
48.7600 559.0000 1.0000
48.7800 535.0000 1.0000
48.8000 523.0000 1.0000
48.8200 545.0000 1.0000
48.8400 520.0000 1.0000
48.8600 581.0000 1.0000
48.8800 537.0000 1.0000
48.9000 524.0000 1.0000
48.9200 540.0000 1.0000
48.9400 565.0000 1.0000
48.9600 510.0000 1.0000
48.9800 511.0000 1.0000
49.0000 547.0000 1.0000
49.0200 572.0000 1.0000
49.0400 581.0000 1.0000
49.0600 534.0000 1.0000
49.0800 545.0000 1.0000
49.1000 536.0000 1.0000
49.1200 574.0000 1.0000
49.1400 517.0000 1.0000
49.1600 538.0000 1.0000
49.1800 534.0000 1.0000
49.2000 529.0000 1.0000
49.2200 524.0000 1.0000
49.2400 525.0000 1.0000
49.2600 574.0000 1.0000
49.2800 556.0000 1.0000
49.3000 537.0000 1.0000
49.3200 545.0000 1.0000
49.3400 544.0000 1.0000
49.3600 513.0000 1.0000
49.3800 611.0000 1.0000
49.4000 520.0000 1.0000
49.4200 523.0000 1.0000
49.4400 524.0000 1.0000
49.4600 556.0000 1.0000
49.4800 616.0000 1.0000
49.5000 528.0000 1.0000
49.5200 557.0000 1.0000
49.5400 531.0000 1.0000
49.5600 528.0000 1.0000
49.5800 596.0000 1.0000
49.6000 561.0000 1.0000
49.6200 553.0000 1.0000
49.6400 573.0000 1.0000
49.6600 541.0000 1.0000
49.6800 555.0000 1.0000
49.7000 560.0000 1.0000
49.7200 520.0000 1.0000
49.7400 541.0000 1.0000
49.7600 562.0000 1.0000
49.7800 555.0000 1.0000
49.8000 522.0000 1.0000
49.8200 561.0000 1.0000
49.8400 551.0000 1.0000
49.8600 543.0000 1.0000
49.8800 544.0000 1.0000
49.9000 574.0000 1.0000
49.9200 493.0000 1.0000
49.9400 531.0000 1.0000
49.9600 552.0000 1.0000
49.9800 568.0000 1.0000
50.0000 541.0000 1.0000
50.0200 527.0000 1.0000
50.0400 545.0000 1.0000
50.0600 547.0000 1.0000
50.0800 530.0000 1.0000
50.1000 586.0000 1.0000
50.1200 571.0000 1.0000
50.1400 569.0000 1.0000
50.1600 523.0000 1.0000
50.1800 565.0000 1.0000
50.2000 598.0000 1.0000
50.2200 549.0000 1.0000
50.2400 636.0000 1.0000
50.2600 569.0000 1.0000
50.2800 539.0000 1.0000
50.3000 575.0000 1.0000
50.3200 550.0000 1.0000
50.3400 549.0000 1.0000
50.3600 501.0000 1.0000
50.3800 534.0000 1.0000
50.4000 516.0000 1.0000
50.4200 515.0000 1.0000
50.4400 550.0000 1.0000
50.4600 524.0000 1.0000
50.4800 558.0000 1.0000
50.5000 533.0000 1.0000
50.5200 538.0000 1.0000
50.5400 542.0000 1.0000
50.5600 535.0000 1.0000
50.5800 562.0000 1.0000
50.6000 558.0000 1.0000
50.6200 549.0000 1.0000
50.6400 577.0000 1.0000
50.6600 578.0000 1.0000
50.6800 521.0000 1.0000
50.7000 563.0000 1.0000
50.7200 517.0000 1.0000
50.7400 555.0000 1.0000
50.7600 564.0000 1.0000
50.7800 541.0000 1.0000
50.8000 548.0000 1.0000
50.8200 521.0000 1.0000
50.8400 539.0000 1.0000
50.8600 561.0000 1.0000
50.8800 562.0000 1.0000
50.9000 523.0000 1.0000
50.9200 568.0000 1.0000
50.9400 517.0000 1.0000
50.9600 562.0000 1.0000
50.9800 535.0000 1.0000
51.0000 558.0000 1.0000
51.0200 546.0000 1.0000
51.0400 537.0000 1.0000
51.0600 590.0000 1.0000
51.0800 520.0000 1.0000
51.1000 527.0000 1.0000
51.1200 563.0000 1.0000
51.1400 536.0000 1.0000
51.1600 557.0000 1.0000
51.1800 581.0000 1.0000
51.2000 570.0000 1.0000
51.2200 544.0000 1.0000
51.2400 542.0000 1.0000
51.2600 534.0000 1.0000
51.2800 557.0000 1.0000
51.3000 544.0000 1.0000
51.3200 546.0000 1.0000
51.3400 585.0000 1.0000
51.3600 542.0000 1.0000
51.3800 538.0000 1.0000
51.4000 577.0000 1.0000
51.4200 540.0000 1.0000
51.4400 548.0000 1.0000
51.4600 564.0000 1.0000
51.4800 586.0000 1.0000
51.5000 557.0000 1.0000
51.5200 535.0000 1.0000
51.5400 519.0000 1.0000
51.5600 537.0000 1.0000
51.5800 554.0000 1.0000
51.6000 565.0000 1.0000
51.6200 538.0000 1.0000
51.6400 546.0000 1.0000
51.6600 560.0000 1.0000
51.6800 561.0000 1.0000
51.7000 559.0000 1.0000
51.7200 575.0000 1.0000
51.7400 522.0000 1.0000
51.7600 553.0000 1.0000
51.7800 560.0000 1.0000
51.8000 530.0000 1.0000
51.8200 553.0000 1.0000
51.8400 569.0000 1.0000
51.8600 566.0000 1.0000
51.8800 568.0000 1.0000
51.9000 548.0000 1.0000
51.9200 547.0000 1.0000
51.9400 595.0000 1.0000
51.9600 517.0000 1.0000
51.9800 538.0000 1.0000
52.0000 548.0000 1.0000
52.0200 521.0000 1.0000
52.0400 535.0000 1.0000
52.0600 551.0000 1.0000
52.0800 526.0000 1.0000
52.1000 558.0000 1.0000
52.1200 568.0000 1.0000
52.1400 523.0000 1.0000
52.1600 582.0000 1.0000
52.1800 581.0000 1.0000
52.2000 541.0000 1.0000
52.2200 553.0000 1.0000
52.2400 525.0000 1.0000
52.2600 527.0000 1.0000
52.2800 566.0000 1.0000
52.3000 551.0000 1.0000
52.3200 539.0000 1.0000
52.3400 546.0000 1.0000
52.3600 547.0000 1.0000
52.3800 556.0000 1.0000
52.4000 552.0000 1.0000
52.4200 561.0000 1.0000
52.4400 539.0000 1.0000
52.4600 557.0000 1.0000
52.4800 521.0000 1.0000
52.5000 535.0000 1.0000
52.5200 534.0000 1.0000
52.5400 548.0000 1.0000
52.5600 558.0000 1.0000
52.5800 527.0000 1.0000
52.6000 549.0000 1.0000
52.6200 518.0000 1.0000
52.6400 529.0000 1.0000
52.6600 568.0000 1.0000
52.6800 552.0000 1.0000
52.7000 509.0000 1.0000
52.7200 557.0000 1.0000
52.7400 522.0000 1.0000
52.7600 534.0000 1.0000
52.7800 523.0000 1.0000
52.8000 541.0000 1.0000
52.8200 542.0000 1.0000
52.8400 565.0000 1.0000
52.8600 526.0000 1.0000
52.8800 501.0000 1.0000
52.9000 551.0000 1.0000
52.9200 552.0000 1.0000
52.9400 476.0000 1.0000
52.9600 555.0000 1.0000
52.9800 532.0000 1.0000
53.0000 529.0000 1.0000
53.0200 566.0000 1.0000
53.0400 512.0000 1.0000
53.0600 572.0000 1.0000
53.0800 499.0000 1.0000
53.1000 502.0000 1.0000
53.1200 533.0000 1.0000
53.1400 530.0000 1.0000
53.1600 558.0000 1.0000
53.1800 554.0000 1.0000
53.2000 548.0000 1.0000
53.2200 564.0000 1.0000
53.2400 529.0000 1.0000
53.2600 526.0000 1.0000
53.2800 575.0000 1.0000
53.3000 542.0000 1.0000
53.3200 520.0000 1.0000
53.3400 565.0000 1.0000
53.3600 598.0000 1.0000
53.3800 534.0000 1.0000
53.4000 565.0000 1.0000
53.4200 512.0000 1.0000
53.4400 568.0000 1.0000
53.4600 586.0000 1.0000
53.4800 583.0000 1.0000
53.5000 540.0000 1.0000
53.5200 570.0000 1.0000
53.5400 571.0000 1.0000
53.5600 576.0000 1.0000
53.5800 508.0000 1.0000
53.6000 574.0000 1.0000
53.6200 571.0000 1.0000
53.6400 583.0000 1.0000
53.6600 586.0000 1.0000
53.6800 554.0000 1.0000
53.7000 588.0000 1.0000
53.7200 594.0000 1.0000
53.7400 622.0000 1.0000
53.7600 637.0000 1.0000
53.7800 633.0000 1.0000
53.8000 597.0000 1.0000
53.8200 582.0000 1.0000
53.8400 590.0000 1.0000
53.8600 560.0000 1.0000
53.8800 582.0000 1.0000
53.9000 565.0000 1.0000
53.9200 556.0000 1.0000
53.9400 542.0000 1.0000
53.9600 561.0000 1.0000
53.9800 617.0000 1.0000
54.0000 600.0000 1.0000
54.0200 568.0000 1.0000
54.0400 580.0000 1.0000
54.0600 580.0000 1.0000
54.0800 582.0000 1.0000
54.1000 521.0000 1.0000
54.1200 565.0000 1.0000
54.1400 576.0000 1.0000
54.1600 544.0000 1.0000
54.1800 603.0000 1.0000
54.2000 520.0000 1.0000
54.2200 574.0000 1.0000
54.2400 531.0000 1.0000
54.2600 571.0000 1.0000
54.2800 546.0000 1.0000
54.3000 531.0000 1.0000
54.3200 549.0000 1.0000
54.3400 550.0000 1.0000
54.3600 591.0000 1.0000
54.3800 551.0000 1.0000
54.4000 530.0000 1.0000
54.4200 550.0000 1.0000
54.4400 563.0000 1.0000
54.4600 541.0000 1.0000
54.4800 539.0000 1.0000
54.5000 517.0000 1.0000
54.5200 510.0000 1.0000
54.5400 534.0000 1.0000
54.5600 543.0000 1.0000
54.5800 563.0000 1.0000
54.6000 571.0000 1.0000
54.6200 531.0000 1.0000
54.6400 556.0000 1.0000
54.6600 550.0000 1.0000
54.6800 562.0000 1.0000
54.7000 574.0000 1.0000
54.7200 520.0000 1.0000
54.7400 592.0000 1.0000
54.7600 512.0000 1.0000
54.7800 547.0000 1.0000
54.8000 567.0000 1.0000
54.8200 536.0000 1.0000
54.8400 558.0000 1.0000
54.8600 575.0000 1.0000
54.8800 536.0000 1.0000
54.9000 574.0000 1.0000
54.9200 530.0000 1.0000
54.9400 548.0000 1.0000
54.9600 560.0000 1.0000
54.9800 538.0000 1.0000
55.0000 565.0000 1.0000
55.0200 506.0000 1.0000
55.0400 517.0000 1.0000
55.0600 573.0000 1.0000
55.0800 520.0000 1.0000
55.1000 526.0000 1.0000
55.1200 560.0000 1.0000
55.1400 522.0000 1.0000
55.1600 562.0000 1.0000
55.1800 514.0000 1.0000
55.2000 536.0000 1.0000
55.2200 539.0000 1.0000
55.2400 561.0000 1.0000
55.2600 527.0000 1.0000
55.2800 563.0000 1.0000
55.3000 571.0000 1.0000
55.3200 551.0000 1.0000
55.3400 522.0000 1.0000
55.3600 544.0000 1.0000
55.3800 546.0000 1.0000
55.4000 517.0000 1.0000
55.4200 522.0000 1.0000
55.4400 567.0000 1.0000
55.4600 544.0000 1.0000
55.4800 586.0000 1.0000
55.5000 577.0000 1.0000
55.5200 551.0000 1.0000
55.5400 512.0000 1.0000
55.5600 555.0000 1.0000
55.5800 553.0000 1.0000
55.6000 562.0000 1.0000
55.6200 566.0000 1.0000
55.6400 523.0000 1.0000
55.6600 529.0000 1.0000
55.6800 526.0000 1.0000
55.7000 538.0000 1.0000
55.7200 534.0000 1.0000
55.7400 596.0000 1.0000
55.7600 527.0000 1.0000
55.7800 559.0000 1.0000
55.8000 552.0000 1.0000
55.8200 550.0000 1.0000
55.8400 511.0000 1.0000
55.8600 534.0000 1.0000
55.8800 530.0000 1.0000
55.9000 586.0000 1.0000
55.9200 497.0000 1.0000
55.9400 524.0000 1.0000
55.9600 583.0000 1.0000
55.9800 582.0000 1.0000
56.0000 585.0000 1.0000
56.0200 591.0000 1.0000
56.0400 544.0000 1.0000
56.0600 596.0000 1.0000
56.0800 537.0000 1.0000
56.1000 588.0000 1.0000
56.1200 612.0000 1.0000
56.1400 552.0000 1.0000
56.1600 580.0000 1.0000
56.1800 530.0000 1.0000
56.2000 533.0000 1.0000
56.2200 551.0000 1.0000
56.2400 555.0000 1.0000
56.2600 577.0000 1.0000
56.2800 549.0000 1.0000
56.3000 515.0000 1.0000
56.3200 588.0000 1.0000
56.3400 551.0000 1.0000
56.3600 561.0000 1.0000
56.3800 575.0000 1.0000
56.4000 552.0000 1.0000
56.4200 509.0000 1.0000
56.4400 587.0000 1.0000
56.4600 544.0000 1.0000
56.4800 563.0000 1.0000
56.5000 543.0000 1.0000
56.5200 570.0000 1.0000
56.5400 584.0000 1.0000
56.5600 544.0000 1.0000
56.5800 567.0000 1.0000
56.6000 603.0000 1.0000
56.6200 547.0000 1.0000
56.6400 556.0000 1.0000
56.6600 542.0000 1.0000
56.6800 536.0000 1.0000
56.7000 538.0000 1.0000
56.7200 541.0000 1.0000
56.7400 537.0000 1.0000
56.7600 535.0000 1.0000
56.7800 546.0000 1.0000
56.8000 554.0000 1.0000
56.8200 564.0000 1.0000
56.8400 551.0000 1.0000
56.8600 545.0000 1.0000
56.8800 582.0000 1.0000
56.9000 564.0000 1.0000
56.9200 593.0000 1.0000
56.9400 564.0000 1.0000
56.9600 553.0000 1.0000
56.9800 568.0000 1.0000
57.0000 556.0000 1.0000
57.0200 603.0000 1.0000
57.0400 624.0000 1.0000
57.0600 634.0000 1.0000
57.0800 580.0000 1.0000
57.1000 605.0000 1.0000
57.1200 601.0000 1.0000
57.1400 608.0000 1.0000
57.1600 638.0000 1.0000
57.1800 670.0000 1.0000
57.2000 637.0000 1.0000
57.2200 706.0000 1.0000
57.2400 670.0000 1.0000
57.2600 689.0000 1.0000
57.2800 706.0000 1.0000
57.3000 685.0000 1.0000
57.3200 733.0000 1.0000
57.3400 681.0000 1.0000
57.3600 689.0000 1.0000
57.3800 682.0000 1.0000
57.4000 701.0000 1.0000
57.4200 669.0000 1.0000
57.4400 692.0000 1.0000
57.4600 655.0000 1.0000
57.4800 636.0000 1.0000
57.5000 647.0000 1.0000
57.5200 653.0000 1.0000
57.5400 620.0000 1.0000
57.5600 579.0000 1.0000
57.5800 578.0000 1.0000
57.6000 627.0000 1.0000
57.6200 622.0000 1.0000
57.6400 565.0000 1.0000
57.6600 624.0000 1.0000
57.6800 528.0000 1.0000
57.7000 576.0000 1.0000
57.7200 588.0000 1.0000
57.7400 614.0000 1.0000
57.7600 557.0000 1.0000
57.7800 545.0000 1.0000
57.8000 529.0000 1.0000
57.8200 571.0000 1.0000
57.8400 564.0000 1.0000
57.8600 557.0000 1.0000
57.8800 572.0000 1.0000
57.9000 527.0000 1.0000
57.9200 548.0000 1.0000
57.9400 558.0000 1.0000
57.9600 584.0000 1.0000
57.9800 530.0000 1.0000
58.0000 550.0000 1.0000
58.0200 565.0000 1.0000
58.0400 587.0000 1.0000
58.0600 564.0000 1.0000
58.0800 522.0000 1.0000
58.1000 534.0000 1.0000
58.1200 527.0000 1.0000
58.1400 529.0000 1.0000
58.1600 563.0000 1.0000
58.1800 518.0000 1.0000
58.2000 592.0000 1.0000
58.2200 563.0000 1.0000
58.2400 533.0000 1.0000
58.2600 545.0000 1.0000
58.2800 537.0000 1.0000
58.3000 521.0000 1.0000
58.3200 562.0000 1.0000
58.3400 551.0000 1.0000
58.3600 504.0000 1.0000
58.3800 605.0000 1.0000
58.4000 583.0000 1.0000
58.4200 556.0000 1.0000
58.4400 526.0000 1.0000
58.4600 524.0000 1.0000
58.4800 574.0000 1.0000
58.5000 548.0000 1.0000
58.5200 572.0000 1.0000
58.5400 524.0000 1.0000
58.5600 525.0000 1.0000
58.5800 552.0000 1.0000
58.6000 605.0000 1.0000
58.6200 598.0000 1.0000
58.6400 563.0000 1.0000
58.6600 569.0000 1.0000
58.6800 575.0000 1.0000
58.7000 579.0000 1.0000
58.7200 555.0000 1.0000
58.7400 543.0000 1.0000
58.7600 507.0000 1.0000
58.7800 556.0000 1.0000
58.8000 565.0000 1.0000
58.8200 590.0000 1.0000
58.8400 557.0000 1.0000
58.8600 539.0000 1.0000
58.8800 552.0000 1.0000
58.9000 561.0000 1.0000
58.9200 513.0000 1.0000
58.9400 564.0000 1.0000
58.9600 536.0000 1.0000
58.9800 550.0000 1.0000
59.0000 529.0000 1.0000
59.0200 560.0000 1.0000
59.0400 552.0000 1.0000
59.0600 517.0000 1.0000
59.0800 548.0000 1.0000
59.1000 545.0000 1.0000
59.1200 583.0000 1.0000
59.1400 558.0000 1.0000
59.1600 569.0000 1.0000
59.1800 547.0000 1.0000
59.2000 491.0000 1.0000
59.2200 552.0000 1.0000
59.2400 559.0000 1.0000
59.2600 539.0000 1.0000
59.2800 533.0000 1.0000
59.3000 541.0000 1.0000
59.3200 558.0000 1.0000
59.3400 554.0000 1.0000
59.3600 560.0000 1.0000
59.3800 541.0000 1.0000
59.4000 547.0000 1.0000
59.4200 527.0000 1.0000
59.4400 528.0000 1.0000
59.4600 530.0000 1.0000
59.4800 560.0000 1.0000
59.5000 571.0000 1.0000
59.5200 563.0000 1.0000
59.5400 526.0000 1.0000
59.5600 558.0000 1.0000
59.5800 567.0000 1.0000
59.6000 521.0000 1.0000
59.6200 571.0000 1.0000
59.6400 562.0000 1.0000
59.6600 506.0000 1.0000
59.6800 537.0000 1.0000
59.7000 546.0000 1.0000
59.7200 514.0000 1.0000
59.7400 575.0000 1.0000
59.7600 529.0000 1.0000
59.7800 533.0000 1.0000
59.8000 536.0000 1.0000
59.8200 554.0000 1.0000
59.8400 535.0000 1.0000
59.8600 507.0000 1.0000
59.8800 565.0000 1.0000
59.9000 542.0000 1.0000
59.9200 543.0000 1.0000
59.9400 529.0000 1.0000
59.9600 545.0000 1.0000
59.9800 565.0000 1.0000
60.0000 554.0000 1.0000
60.0200 540.0000 1.0000
60.0400 569.0000 1.0000
60.0600 582.0000 1.0000
60.0800 552.0000 1.0000
60.1000 600.0000 1.0000
60.1200 529.0000 1.0000
60.1400 550.0000 1.0000
60.1600 531.0000 1.0000
60.1800 530.0000 1.0000
60.2000 588.0000 1.0000
60.2200 586.0000 1.0000
60.2400 515.0000 1.0000
60.2600 533.0000 1.0000
60.2800 588.0000 1.0000
60.3000 524.0000 1.0000
60.3200 541.0000 1.0000
60.3400 492.0000 1.0000
60.3600 575.0000 1.0000
60.3800 566.0000 1.0000
60.4000 530.0000 1.0000
60.4200 543.0000 1.0000
60.4400 530.0000 1.0000
60.4600 564.0000 1.0000
60.4800 551.0000 1.0000
60.5000 540.0000 1.0000
60.5200 502.0000 1.0000
60.5400 598.0000 1.0000
60.5600 571.0000 1.0000
60.5800 531.0000 1.0000
60.6000 586.0000 1.0000
60.6200 592.0000 1.0000
60.6400 565.0000 1.0000
60.6600 558.0000 1.0000
60.6800 545.0000 1.0000
60.7000 531.0000 1.0000
60.7200 543.0000 1.0000
60.7400 555.0000 1.0000
60.7600 512.0000 1.0000
60.7800 603.0000 1.0000
60.8000 565.0000 1.0000
60.8200 507.0000 1.0000
60.8400 567.0000 1.0000
60.8600 541.0000 1.0000
60.8800 561.0000 1.0000
60.9000 545.0000 1.0000
60.9200 539.0000 1.0000
60.9400 578.0000 1.0000
60.9600 539.0000 1.0000
60.9800 518.0000 1.0000
61.0000 544.0000 1.0000
61.0200 546.0000 1.0000
61.0400 538.0000 1.0000
61.0600 550.0000 1.0000
61.0800 538.0000 1.0000
61.1000 538.0000 1.0000
61.1200 567.0000 1.0000
61.1400 492.0000 1.0000
61.1600 516.0000 1.0000
61.1800 540.0000 1.0000
61.2000 542.0000 1.0000
61.2200 603.0000 1.0000
61.2400 554.0000 1.0000
61.2600 541.0000 1.0000
61.2800 535.0000 1.0000
61.3000 568.0000 1.0000
61.3200 544.0000 1.0000
61.3400 561.0000 1.0000
61.3600 590.0000 1.0000
61.3800 543.0000 1.0000
61.4000 589.0000 1.0000
61.4200 529.0000 1.0000
61.4400 538.0000 1.0000
61.4600 543.0000 1.0000
61.4800 599.0000 1.0000
61.5000 598.0000 1.0000
61.5200 560.0000 1.0000
61.5400 529.0000 1.0000
61.5600 577.0000 1.0000
61.5800 552.0000 1.0000
61.6000 586.0000 1.0000
61.6200 558.0000 1.0000
61.6400 555.0000 1.0000
61.6600 557.0000 1.0000
61.6800 555.0000 1.0000
61.7000 561.0000 1.0000
61.7200 519.0000 1.0000
61.7400 616.0000 1.0000
61.7600 541.0000 1.0000
61.7800 557.0000 1.0000
61.8000 541.0000 1.0000
61.8200 543.0000 1.0000
61.8400 563.0000 1.0000
61.8600 549.0000 1.0000
61.8800 576.0000 1.0000
61.9000 523.0000 1.0000
61.9200 547.0000 1.0000
61.9400 538.0000 1.0000
61.9600 535.0000 1.0000
61.9800 556.0000 1.0000
62.0000 582.0000 1.0000
62.0200 545.0000 1.0000
62.0400 555.0000 1.0000
62.0600 538.0000 1.0000
62.0800 575.0000 1.0000
62.1000 572.0000 1.0000
62.1200 509.0000 1.0000
62.1400 574.0000 1.0000
62.1600 546.0000 1.0000
62.1800 557.0000 1.0000
62.2000 599.0000 1.0000
62.2200 586.0000 1.0000
62.2400 554.0000 1.0000
62.2600 550.0000 1.0000
62.2800 573.0000 1.0000
62.3000 521.0000 1.0000
62.3200 583.0000 1.0000
62.3400 643.0000 1.0000
62.3600 581.0000 1.0000
62.3800 548.0000 1.0000
62.4000 571.0000 1.0000
62.4200 523.0000 1.0000
62.4400 588.0000 1.0000
62.4600 588.0000 1.0000
62.4800 553.0000 1.0000
62.5000 568.0000 1.0000
62.5200 604.0000 1.0000
62.5400 562.0000 1.0000
62.5600 607.0000 1.0000
62.5800 574.0000 1.0000
62.6000 620.0000 1.0000
62.6200 608.0000 1.0000
62.6400 592.0000 1.0000
62.6600 619.0000 1.0000
62.6800 614.0000 1.0000
62.7000 641.0000 1.0000
62.7200 664.0000 1.0000
62.7400 640.0000 1.0000
62.7600 693.0000 1.0000
62.7800 658.0000 1.0000
62.8000 715.0000 1.0000
62.8200 688.0000 1.0000
62.8400 741.0000 1.0000
62.8600 699.0000 1.0000
62.8800 736.0000 1.0000
62.9000 687.0000 1.0000
62.9200 723.0000 1.0000
62.9400 733.0000 1.0000
62.9600 696.0000 1.0000
62.9800 687.0000 1.0000
63.0000 662.0000 1.0000
63.0200 679.0000 1.0000
63.0400 679.0000 1.0000
63.0600 687.0000 1.0000
63.0800 651.0000 1.0000
63.1000 642.0000 1.0000
63.1200 668.0000 1.0000
63.1400 609.0000 1.0000
63.1600 673.0000 1.0000
63.1800 591.0000 1.0000
63.2000 557.0000 1.0000
63.2200 574.0000 1.0000
63.2400 570.0000 1.0000
63.2600 557.0000 1.0000
63.2800 577.0000 1.0000
63.3000 614.0000 1.0000
63.3200 616.0000 1.0000
63.3400 616.0000 1.0000
63.3600 597.0000 1.0000
63.3800 586.0000 1.0000
63.4000 549.0000 1.0000
63.4200 585.0000 1.0000
63.4400 559.0000 1.0000
63.4600 566.0000 1.0000
63.4800 558.0000 1.0000
63.5000 565.0000 1.0000
63.5200 573.0000 1.0000
63.5400 565.0000 1.0000
63.5600 575.0000 1.0000
63.5800 530.0000 1.0000
63.6000 535.0000 1.0000
63.6200 530.0000 1.0000
63.6400 553.0000 1.0000
63.6600 552.0000 1.0000
63.6800 526.0000 1.0000
63.7000 567.0000 1.0000
63.7200 562.0000 1.0000
63.7400 612.0000 1.0000
63.7600 511.0000 1.0000
63.7800 569.0000 1.0000
63.8000 529.0000 1.0000
63.8200 586.0000 1.0000
63.8400 583.0000 1.0000
63.8600 562.0000 1.0000
63.8800 561.0000 1.0000
63.9000 557.0000 1.0000
63.9200 545.0000 1.0000
63.9400 522.0000 1.0000
63.9600 541.0000 1.0000
63.9800 557.0000 1.0000
64.0000 586.0000 1.0000
64.0200 525.0000 1.0000
64.0400 578.0000 1.0000
64.0600 558.0000 1.0000
64.0800 587.0000 1.0000
64.1000 545.0000 1.0000
64.1200 558.0000 1.0000
64.1400 512.0000 1.0000
64.1600 575.0000 1.0000
64.1800 579.0000 1.0000
64.2000 547.0000 1.0000
64.2200 561.0000 1.0000
64.2400 532.0000 1.0000
64.2600 548.0000 1.0000
64.2800 577.0000 1.0000
64.3000 547.0000 1.0000
64.3200 572.0000 1.0000
64.3400 556.0000 1.0000
64.3600 539.0000 1.0000
64.3800 539.0000 1.0000
64.4000 563.0000 1.0000
64.4200 562.0000 1.0000
64.4400 540.0000 1.0000
64.4600 539.0000 1.0000
64.4800 564.0000 1.0000
64.5000 550.0000 1.0000
64.5200 590.0000 1.0000
64.5400 503.0000 1.0000
64.5600 558.0000 1.0000
64.5800 550.0000 1.0000
64.6000 556.0000 1.0000
64.6200 579.0000 1.0000
64.6400 583.0000 1.0000
64.6600 558.0000 1.0000
64.6800 572.0000 1.0000
64.7000 575.0000 1.0000
64.7200 573.0000 1.0000
64.7400 551.0000 1.0000
64.7600 569.0000 1.0000
64.7800 533.0000 1.0000
64.8000 581.0000 1.0000
64.8200 530.0000 1.0000
64.8400 562.0000 1.0000
64.8600 549.0000 1.0000
64.8800 546.0000 1.0000
64.9000 566.0000 1.0000
64.9200 572.0000 1.0000
64.9400 557.0000 1.0000
64.9600 512.0000 1.0000
64.9800 521.0000 1.0000
65.0000 549.0000 1.0000
65.0200 528.0000 1.0000
65.0400 500.0000 1.0000
65.0600 538.0000 1.0000
65.0800 559.0000 1.0000
65.1000 570.0000 1.0000
65.1200 521.0000 1.0000
65.1400 528.0000 1.0000
65.1600 535.0000 1.0000
65.1800 550.0000 1.0000
65.2000 553.0000 1.0000
65.2200 524.0000 1.0000
65.2400 562.0000 1.0000
65.2600 591.0000 1.0000
65.2800 547.0000 1.0000
65.3000 592.0000 1.0000
65.3200 535.0000 1.0000
65.3400 530.0000 1.0000
65.3600 540.0000 1.0000
65.3800 563.0000 1.0000
65.4000 578.0000 1.0000
65.4200 539.0000 1.0000
65.4400 532.0000 1.0000
65.4600 555.0000 1.0000
65.4800 536.0000 1.0000
65.5000 556.0000 1.0000
65.5200 576.0000 1.0000
65.5400 500.0000 1.0000
65.5600 547.0000 1.0000
65.5800 580.0000 1.0000
65.6000 522.0000 1.0000
65.6200 514.0000 1.0000
65.6400 524.0000 1.0000
65.6600 550.0000 1.0000
65.6800 568.0000 1.0000
65.7000 548.0000 1.0000
65.7200 562.0000 1.0000
65.7400 564.0000 1.0000
65.7600 558.0000 1.0000
65.7800 517.0000 1.0000
65.8000 538.0000 1.0000
65.8200 539.0000 1.0000
65.8400 524.0000 1.0000
65.8600 561.0000 1.0000
65.8800 582.0000 1.0000
65.9000 538.0000 1.0000
65.9200 567.0000 1.0000
65.9400 543.0000 1.0000
65.9600 563.0000 1.0000
65.9800 582.0000 1.0000
66.0000 574.0000 1.0000
66.0200 543.0000 1.0000
66.0400 558.0000 1.0000
66.0600 574.0000 1.0000
66.0800 586.0000 1.0000
66.1000 537.0000 1.0000
66.1200 550.0000 1.0000
66.1400 560.0000 1.0000
66.1600 570.0000 1.0000
66.1800 557.0000 1.0000
66.2000 592.0000 1.0000
66.2200 542.0000 1.0000
66.2400 565.0000 1.0000
66.2600 566.0000 1.0000
66.2800 542.0000 1.0000
66.3000 547.0000 1.0000
66.3200 560.0000 1.0000
66.3400 571.0000 1.0000
66.3600 494.0000 1.0000
66.3800 535.0000 1.0000
66.4000 547.0000 1.0000
66.4200 569.0000 1.0000
66.4400 551.0000 1.0000
66.4600 522.0000 1.0000
66.4800 531.0000 1.0000
66.5000 543.0000 1.0000
66.5200 586.0000 1.0000
66.5400 541.0000 1.0000
66.5600 533.0000 1.0000
66.5800 591.0000 1.0000
66.6000 554.0000 1.0000
66.6200 553.0000 1.0000
66.6400 533.0000 1.0000
66.6600 539.0000 1.0000
66.6800 564.0000 1.0000
66.7000 583.0000 1.0000
66.7200 584.0000 1.0000
66.7400 542.0000 1.0000
66.7600 532.0000 1.0000
66.7800 534.0000 1.0000
66.8000 568.0000 1.0000
66.8200 546.0000 1.0000
66.8400 592.0000 1.0000
66.8600 564.0000 1.0000
66.8800 584.0000 1.0000
66.9000 550.0000 1.0000
66.9200 572.0000 1.0000
66.9400 568.0000 1.0000
66.9600 529.0000 1.0000
66.9800 573.0000 1.0000
67.0000 574.0000 1.0000
67.0200 498.0000 1.0000
67.0400 567.0000 1.0000
67.0600 630.0000 1.0000
67.0800 551.0000 1.0000
67.1000 551.0000 1.0000
67.1200 561.0000 1.0000
67.1400 569.0000 1.0000
67.1600 564.0000 1.0000
67.1800 561.0000 1.0000
67.2000 560.0000 1.0000
67.2200 560.0000 1.0000
67.2400 569.0000 1.0000
67.2600 576.0000 1.0000
67.2800 590.0000 1.0000
67.3000 615.0000 1.0000
67.3200 591.0000 1.0000
67.3400 575.0000 1.0000
67.3600 556.0000 1.0000
67.3800 611.0000 1.0000
67.4000 572.0000 1.0000
67.4200 534.0000 1.0000
67.4400 581.0000 1.0000
67.4600 519.0000 1.0000
67.4800 555.0000 1.0000
67.5000 548.0000 1.0000
67.5200 573.0000 1.0000
67.5400 567.0000 1.0000
67.5600 532.0000 1.0000
67.5800 542.0000 1.0000
67.6000 563.0000 1.0000
67.6200 533.0000 1.0000
67.6400 541.0000 1.0000
67.6600 523.0000 1.0000
67.6800 515.0000 1.0000
67.7000 565.0000 1.0000
67.7200 560.0000 1.0000
67.7400 543.0000 1.0000
67.7600 558.0000 1.0000
67.7800 544.0000 1.0000
67.8000 585.0000 1.0000
67.8200 537.0000 1.0000
67.8400 522.0000 1.0000
67.8600 498.0000 1.0000
67.8800 594.0000 1.0000
67.9000 594.0000 1.0000
67.9200 560.0000 1.0000
67.9400 543.0000 1.0000
67.9600 562.0000 1.0000
67.9800 608.0000 1.0000
68.0000 526.0000 1.0000
68.0200 518.0000 1.0000
68.0400 556.0000 1.0000
68.0600 564.0000 1.0000
68.0800 564.0000 1.0000
68.1000 547.0000 1.0000
68.1200 516.0000 1.0000
68.1400 547.0000 1.0000
68.1600 515.0000 1.0000
68.1800 500.0000 1.0000
68.2000 537.0000 1.0000
68.2200 580.0000 1.0000
68.2400 553.0000 1.0000
68.2600 555.0000 1.0000
68.2800 515.0000 1.0000
68.3000 551.0000 1.0000
68.3200 541.0000 1.0000
68.3400 561.0000 1.0000
68.3600 540.0000 1.0000
68.3800 551.0000 1.0000
68.4000 566.0000 1.0000
68.4200 497.0000 1.0000
68.4400 546.0000 1.0000
68.4600 506.0000 1.0000
68.4800 491.0000 1.0000
68.5000 539.0000 1.0000
68.5200 540.0000 1.0000
68.5400 522.0000 1.0000
68.5600 531.0000 1.0000
68.5800 546.0000 1.0000
68.6000 565.0000 1.0000
68.6200 564.0000 1.0000
68.6400 546.0000 1.0000
68.6600 581.0000 1.0000
68.6800 546.0000 1.0000
68.7000 593.0000 1.0000
68.7200 538.0000 1.0000
68.7400 533.0000 1.0000
68.7600 553.0000 1.0000
68.7800 566.0000 1.0000
68.8000 538.0000 1.0000
68.8200 545.0000 1.0000
68.8400 550.0000 1.0000
68.8600 571.0000 1.0000
68.8800 543.0000 1.0000
68.9000 546.0000 1.0000
68.9200 542.0000 1.0000
68.9400 544.0000 1.0000
68.9600 565.0000 1.0000
68.9800 557.0000 1.0000
69.0000 524.0000 1.0000
69.0200 542.0000 1.0000
69.0400 535.0000 1.0000
69.0600 532.0000 1.0000
69.0800 539.0000 1.0000
69.1000 523.0000 1.0000
69.1200 544.0000 1.0000
69.1400 547.0000 1.0000
69.1600 543.0000 1.0000
69.1800 542.0000 1.0000
69.2000 548.0000 1.0000
69.2200 543.0000 1.0000
69.2400 555.0000 1.0000
69.2600 581.0000 1.0000
69.2800 539.0000 1.0000
69.3000 525.0000 1.0000
69.3200 558.0000 1.0000
69.3400 552.0000 1.0000
69.3600 584.0000 1.0000
69.3800 594.0000 1.0000
69.4000 568.0000 1.0000
69.4200 498.0000 1.0000
69.4400 592.0000 1.0000
69.4600 525.0000 1.0000
69.4800 560.0000 1.0000
69.5000 588.0000 1.0000
69.5200 577.0000 1.0000
69.5400 583.0000 1.0000
69.5600 543.0000 1.0000
69.5800 531.0000 1.0000
69.6000 543.0000 1.0000
69.6200 589.0000 1.0000
69.6400 559.0000 1.0000
69.6600 557.0000 1.0000
69.6800 600.0000 1.0000
69.7000 563.0000 1.0000
69.7200 543.0000 1.0000
69.7400 521.0000 1.0000
69.7600 547.0000 1.0000
69.7800 545.0000 1.0000
69.8000 591.0000 1.0000
69.8200 565.0000 1.0000
69.8400 553.0000 1.0000
69.8600 509.0000 1.0000
69.8800 535.0000 1.0000
69.9000 523.0000 1.0000
69.9200 520.0000 1.0000
69.9400 533.0000 1.0000
69.9600 519.0000 1.0000
69.9800 556.0000 1.0000
70.0000 567.0000 1.0000
70.0200 578.0000 1.0000
70.0400 574.0000 1.0000
70.0600 533.0000 1.0000
70.0800 537.0000 1.0000
70.1000 580.0000 1.0000
70.1200 577.0000 1.0000
70.1400 536.0000 1.0000
70.1600 532.0000 1.0000
70.1800 539.0000 1.0000
70.2000 521.0000 1.0000
70.2200 528.0000 1.0000
70.2400 540.0000 1.0000
70.2600 555.0000 1.0000
70.2800 561.0000 1.0000
70.3000 500.0000 1.0000
70.3200 561.0000 1.0000
70.3400 528.0000 1.0000
70.3600 547.0000 1.0000
70.3800 544.0000 1.0000
70.4000 564.0000 1.0000
70.4200 491.0000 1.0000
70.4400 580.0000 1.0000
70.4600 503.0000 1.0000
70.4800 531.0000 1.0000
70.5000 547.0000 1.0000
70.5200 538.0000 1.0000
70.5400 552.0000 1.0000
70.5600 578.0000 1.0000
70.5800 561.0000 1.0000
70.6000 550.0000 1.0000
70.6200 522.0000 1.0000
70.6400 551.0000 1.0000
70.6600 569.0000 1.0000
70.6800 572.0000 1.0000
70.7000 543.0000 1.0000
70.7200 538.0000 1.0000
70.7400 540.0000 1.0000
70.7600 539.0000 1.0000
70.7800 583.0000 1.0000
70.8000 522.0000 1.0000
70.8200 554.0000 1.0000
70.8400 531.0000 1.0000
70.8600 515.0000 1.0000
70.8800 590.0000 1.0000
70.9000 539.0000 1.0000
70.9200 575.0000 1.0000
70.9400 514.0000 1.0000
70.9600 549.0000 1.0000
70.9800 588.0000 1.0000
71.0000 554.0000 1.0000
71.0200 534.0000 1.0000
71.0400 586.0000 1.0000
71.0600 548.0000 1.0000
71.0800 565.0000 1.0000
71.1000 590.0000 1.0000
71.1200 579.0000 1.0000
71.1400 571.0000 1.0000
71.1600 545.0000 1.0000
71.1800 557.0000 1.0000
71.2000 552.0000 1.0000
71.2200 538.0000 1.0000
71.2400 545.0000 1.0000
71.2600 546.0000 1.0000
71.2800 499.0000 1.0000
71.3000 602.0000 1.0000
71.3200 637.0000 1.0000
71.3400 591.0000 1.0000
71.3600 546.0000 1.0000
71.3800 570.0000 1.0000
71.4000 540.0000 1.0000
71.4200 572.0000 1.0000
71.4400 562.0000 1.0000
71.4600 569.0000 1.0000
71.4800 527.0000 1.0000
71.5000 601.0000 1.0000
71.5200 591.0000 1.0000
71.5400 556.0000 1.0000
71.5600 535.0000 1.0000
71.5800 604.0000 1.0000
71.6000 575.0000 1.0000
71.6200 551.0000 1.0000
71.6400 556.0000 1.0000
71.6600 556.0000 1.0000
71.6800 563.0000 1.0000
71.7000 628.0000 1.0000
71.7200 540.0000 1.0000
71.7400 559.0000 1.0000
71.7600 521.0000 1.0000
71.7800 534.0000 1.0000
71.8000 523.0000 1.0000
71.8200 525.0000 1.0000
71.8400 555.0000 1.0000
71.8600 503.0000 1.0000
71.8800 546.0000 1.0000
71.9000 550.0000 1.0000
71.9200 561.0000 1.0000
71.9400 582.0000 1.0000
71.9600 508.0000 1.0000
71.9800 568.0000 1.0000
72.0000 559.0000 1.0000
72.0200 548.0000 1.0000
72.0400 528.0000 1.0000
72.0600 550.0000 1.0000
72.0800 530.0000 1.0000
72.1000 528.0000 1.0000
72.1200 537.0000 1.0000
72.1400 569.0000 1.0000
72.1600 580.0000 1.0000
72.1800 543.0000 1.0000
72.2000 556.0000 1.0000
72.2200 563.0000 1.0000
72.2400 549.0000 1.0000
72.2600 565.0000 1.0000
72.2800 541.0000 1.0000
72.3000 547.0000 1.0000
72.3200 565.0000 1.0000
72.3400 560.0000 1.0000
72.3600 556.0000 1.0000
72.3800 549.0000 1.0000
72.4000 563.0000 1.0000
72.4200 561.0000 1.0000
72.4400 515.0000 1.0000
72.4600 540.0000 1.0000
72.4800 535.0000 1.0000
72.5000 580.0000 1.0000
72.5200 525.0000 1.0000
72.5400 556.0000 1.0000
72.5600 555.0000 1.0000
72.5800 545.0000 1.0000
72.6000 568.0000 1.0000
72.6200 528.0000 1.0000
72.6400 541.0000 1.0000
72.6600 508.0000 1.0000
72.6800 566.0000 1.0000
72.7000 580.0000 1.0000
72.7200 566.0000 1.0000
72.7400 592.0000 1.0000
72.7600 521.0000 1.0000
72.7800 596.0000 1.0000
72.8000 570.0000 1.0000
72.8200 557.0000 1.0000
72.8400 565.0000 1.0000
72.8600 521.0000 1.0000
72.8800 562.0000 1.0000
72.9000 532.0000 1.0000
72.9200 516.0000 1.0000
72.9400 518.0000 1.0000
72.9600 576.0000 1.0000
72.9800 556.0000 1.0000
73.0000 607.0000 1.0000
73.0200 556.0000 1.0000
73.0400 568.0000 1.0000
73.0600 581.0000 1.0000
73.0800 549.0000 1.0000
73.1000 550.0000 1.0000
73.1200 539.0000 1.0000
73.1400 529.0000 1.0000
73.1600 511.0000 1.0000
73.1800 511.0000 1.0000
73.2000 499.0000 1.0000
73.2200 593.0000 1.0000
73.2400 572.0000 1.0000
73.2600 565.0000 1.0000
73.2800 550.0000 1.0000
73.3000 551.0000 1.0000
73.3200 576.0000 1.0000
73.3400 552.0000 1.0000
73.3600 566.0000 1.0000
73.3800 503.0000 1.0000
73.4000 531.0000 1.0000
73.4200 576.0000 1.0000
73.4400 555.0000 1.0000
73.4600 578.0000 1.0000
73.4800 522.0000 1.0000
73.5000 565.0000 1.0000
73.5200 572.0000 1.0000
73.5400 542.0000 1.0000
73.5600 609.0000 1.0000
73.5800 590.0000 1.0000
73.6000 549.0000 1.0000
73.6200 544.0000 1.0000
73.6400 527.0000 1.0000
73.6600 569.0000 1.0000
73.6800 598.0000 1.0000
73.7000 511.0000 1.0000
73.7200 550.0000 1.0000
73.7400 594.0000 1.0000
73.7600 545.0000 1.0000
73.7800 524.0000 1.0000
73.8000 545.0000 1.0000
73.8200 541.0000 1.0000
73.8400 545.0000 1.0000
73.8600 532.0000 1.0000
73.8800 576.0000 1.0000
73.9000 534.0000 1.0000
73.9200 517.0000 1.0000
73.9400 555.0000 1.0000
73.9600 566.0000 1.0000
73.9800 537.0000 1.0000
74.0000 514.0000 1.0000
74.0200 554.0000 1.0000
74.0400 585.0000 1.0000
74.0600 549.0000 1.0000
74.0800 533.0000 1.0000
74.1000 549.0000 1.0000
74.1200 539.0000 1.0000
74.1400 549.0000 1.0000
74.1600 574.0000 1.0000
74.1800 583.0000 1.0000
74.2000 542.0000 1.0000
74.2200 578.0000 1.0000
74.2400 546.0000 1.0000
74.2600 578.0000 1.0000
74.2800 579.0000 1.0000
74.3000 595.0000 1.0000
74.3200 572.0000 1.0000
74.3400 569.0000 1.0000
74.3600 591.0000 1.0000
74.3800 567.0000 1.0000
74.4000 566.0000 1.0000
74.4200 571.0000 1.0000
74.4400 570.0000 1.0000
74.4600 559.0000 1.0000
74.4800 610.0000 1.0000
74.5000 559.0000 1.0000
74.5200 585.0000 1.0000
74.5400 599.0000 1.0000
74.5600 557.0000 1.0000
74.5800 589.0000 1.0000
74.6000 581.0000 1.0000
74.6200 562.0000 1.0000
74.6400 530.0000 1.0000
74.6600 559.0000 1.0000
74.6800 554.0000 1.0000
74.7000 543.0000 1.0000
74.7200 572.0000 1.0000
74.7400 544.0000 1.0000
74.7600 560.0000 1.0000
74.7800 574.0000 1.0000
74.8000 568.0000 1.0000
74.8200 538.0000 1.0000
74.8400 605.0000 1.0000
74.8600 558.0000 1.0000
74.8800 552.0000 1.0000
74.9000 567.0000 1.0000
74.9200 591.0000 1.0000
74.9400 526.0000 1.0000
74.9600 604.0000 1.0000
74.9800 572.0000 1.0000
75.0000 571.0000 1.0000
75.0200 529.0000 1.0000
75.0400 607.0000 1.0000
75.0600 562.0000 1.0000
75.0800 559.0000 1.0000
75.1000 554.0000 1.0000
75.1200 593.0000 1.0000
75.1400 574.0000 1.0000
75.1600 568.0000 1.0000
75.1800 573.0000 1.0000
75.2000 580.0000 1.0000
75.2200 604.0000 1.0000
75.2400 571.0000 1.0000
75.2600 557.0000 1.0000
75.2800 570.0000 1.0000
75.3000 561.0000 1.0000
75.3200 583.0000 1.0000
75.3400 573.0000 1.0000
75.3600 550.0000 1.0000
75.3800 574.0000 1.0000
75.4000 524.0000 1.0000
75.4200 599.0000 1.0000
75.4400 575.0000 1.0000
75.4600 580.0000 1.0000
75.4800 516.0000 1.0000
75.5000 515.0000 1.0000
75.5200 526.0000 1.0000
75.5400 581.0000 1.0000
75.5600 529.0000 1.0000
75.5800 531.0000 1.0000
75.6000 610.0000 1.0000
75.6200 544.0000 1.0000
75.6400 530.0000 1.0000
75.6600 579.0000 1.0000
75.6800 564.0000 1.0000
75.7000 525.0000 1.0000
75.7200 557.0000 1.0000
75.7400 559.0000 1.0000
75.7600 566.0000 1.0000
75.7800 576.0000 1.0000
75.8000 550.0000 1.0000
75.8200 556.0000 1.0000
75.8400 555.0000 1.0000
75.8600 571.0000 1.0000
75.8800 519.0000 1.0000
75.9000 576.0000 1.0000
75.9200 544.0000 1.0000
75.9400 526.0000 1.0000
75.9600 557.0000 1.0000
75.9800 533.0000 1.0000
76.0000 577.0000 1.0000
76.0200 546.0000 1.0000
76.0400 552.0000 1.0000
76.0600 566.0000 1.0000
76.0800 588.0000 1.0000
76.1000 541.0000 1.0000
76.1200 532.0000 1.0000
76.1400 582.0000 1.0000
76.1600 545.0000 1.0000
76.1800 534.0000 1.0000
76.2000 539.0000 1.0000
76.2200 565.0000 1.0000
76.2400 595.0000 1.0000
76.2600 578.0000 1.0000
76.2800 571.0000 1.0000
76.3000 602.0000 1.0000
76.3200 542.0000 1.0000
76.3400 586.0000 1.0000
76.3600 568.0000 1.0000
76.3800 554.0000 1.0000
76.4000 532.0000 1.0000
76.4200 572.0000 1.0000
76.4400 515.0000 1.0000
76.4600 552.0000 1.0000
76.4800 555.0000 1.0000
76.5000 544.0000 1.0000
76.5200 601.0000 1.0000
76.5400 506.0000 1.0000
76.5600 527.0000 1.0000
76.5800 544.0000 1.0000
76.6000 587.0000 1.0000
76.6200 595.0000 1.0000
76.6400 548.0000 1.0000
76.6600 596.0000 1.0000
76.6800 633.0000 1.0000
76.7000 549.0000 1.0000
76.7200 532.0000 1.0000
76.7400 579.0000 1.0000
76.7600 606.0000 1.0000
76.7800 512.0000 1.0000
76.8000 595.0000 1.0000
76.8200 529.0000 1.0000
76.8400 556.0000 1.0000
76.8600 537.0000 1.0000
76.8800 555.0000 1.0000
76.9000 572.0000 1.0000
76.9200 557.0000 1.0000
76.9400 569.0000 1.0000
76.9600 517.0000 1.0000
76.9800 547.0000 1.0000
77.0000 590.0000 1.0000
77.0200 590.0000 1.0000
77.0400 569.0000 1.0000
77.0600 581.0000 1.0000
77.0800 619.0000 1.0000
77.1000 570.0000 1.0000
77.1200 533.0000 1.0000
77.1400 541.0000 1.0000
77.1600 522.0000 1.0000
77.1800 550.0000 1.0000
77.2000 532.0000 1.0000
77.2200 562.0000 1.0000
77.2400 539.0000 1.0000
77.2600 593.0000 1.0000
77.2800 589.0000 1.0000
77.3000 551.0000 1.0000
77.3200 546.0000 1.0000
77.3400 577.0000 1.0000
77.3600 544.0000 1.0000
77.3800 539.0000 1.0000
77.4000 573.0000 1.0000
77.4200 533.0000 1.0000
77.4400 529.0000 1.0000
77.4600 562.0000 1.0000
77.4800 520.0000 1.0000
77.5000 595.0000 1.0000
77.5200 571.0000 1.0000
77.5400 549.0000 1.0000
77.5600 563.0000 1.0000
77.5800 564.0000 1.0000
77.6000 581.0000 1.0000
77.6200 545.0000 1.0000
77.6400 538.0000 1.0000
77.6600 562.0000 1.0000
77.6800 549.0000 1.0000
77.7000 569.0000 1.0000
77.7200 526.0000 1.0000
77.7400 546.0000 1.0000
77.7600 571.0000 1.0000
77.7800 530.0000 1.0000
77.8000 571.0000 1.0000
77.8200 580.0000 1.0000
77.8400 548.0000 1.0000
77.8600 513.0000 1.0000
77.8800 587.0000 1.0000
77.9000 492.0000 1.0000
77.9200 544.0000 1.0000
77.9400 557.0000 1.0000
77.9600 575.0000 1.0000
77.9800 528.0000 1.0000
78.0000 563.0000 1.0000
78.0200 523.0000 1.0000
78.0400 544.0000 1.0000
78.0600 548.0000 1.0000
78.0800 594.0000 1.0000
78.1000 544.0000 1.0000
78.1200 555.0000 1.0000
78.1400 577.0000 1.0000
78.1600 533.0000 1.0000
78.1800 562.0000 1.0000
78.2000 534.0000 1.0000
78.2200 592.0000 1.0000
78.2400 516.0000 1.0000
78.2600 540.0000 1.0000
78.2800 557.0000 1.0000
78.3000 543.0000 1.0000
78.3200 530.0000 1.0000
78.3400 542.0000 1.0000
78.3600 560.0000 1.0000
78.3800 558.0000 1.0000
78.4000 582.0000 1.0000
78.4200 509.0000 1.0000
78.4400 531.0000 1.0000
78.4600 569.0000 1.0000
78.4800 563.0000 1.0000
78.5000 545.0000 1.0000
78.5200 547.0000 1.0000
78.5400 555.0000 1.0000
78.5600 605.0000 1.0000
78.5800 579.0000 1.0000
78.6000 566.0000 1.0000
78.6200 512.0000 1.0000
78.6400 578.0000 1.0000
78.6600 526.0000 1.0000
78.6800 544.0000 1.0000
78.7000 558.0000 1.0000
78.7200 563.0000 1.0000
78.7400 597.0000 1.0000
78.7600 569.0000 1.0000
78.7800 581.0000 1.0000
78.8000 534.0000 1.0000
78.8200 531.0000 1.0000
78.8400 543.0000 1.0000
78.8600 553.0000 1.0000
78.8800 520.0000 1.0000
78.9000 540.0000 1.0000
78.9200 569.0000 1.0000
78.9400 536.0000 1.0000
78.9600 565.0000 1.0000
78.9800 516.0000 1.0000
79.0000 555.0000 1.0000
79.0200 554.0000 1.0000
79.0400 605.0000 1.0000
79.0600 556.0000 1.0000
79.0800 562.0000 1.0000
79.1000 543.0000 1.0000
79.1200 571.0000 1.0000
79.1400 564.0000 1.0000
79.1600 566.0000 1.0000
79.1800 569.0000 1.0000
79.2000 518.0000 1.0000
79.2200 530.0000 1.0000
79.2400 539.0000 1.0000
79.2600 549.0000 1.0000
79.2800 534.0000 1.0000
79.3000 550.0000 1.0000
79.3200 564.0000 1.0000
79.3400 559.0000 1.0000
79.3600 579.0000 1.0000
79.3800 571.0000 1.0000
79.4000 547.0000 1.0000
79.4200 494.0000 1.0000
79.4400 553.0000 1.0000
79.4600 572.0000 1.0000
79.4800 540.0000 1.0000
79.5000 570.0000 1.0000
79.5200 501.0000 1.0000
79.5400 529.0000 1.0000
79.5600 580.0000 1.0000
79.5800 504.0000 1.0000
79.6000 539.0000 1.0000
79.6200 550.0000 1.0000
79.6400 562.0000 1.0000
79.6600 500.0000 1.0000
79.6800 602.0000 1.0000
79.7000 565.0000 1.0000
79.7200 565.0000 1.0000
79.7400 511.0000 1.0000
79.7600 519.0000 1.0000
79.7800 575.0000 1.0000
79.8000 501.0000 1.0000
79.8200 538.0000 1.0000
79.8400 560.0000 1.0000
79.8600 517.0000 1.0000
79.8800 534.0000 1.0000
79.9000 539.0000 1.0000
79.9200 554.0000 1.0000
79.9400 516.0000 1.0000
79.9600 533.0000 1.0000
79.9800 585.0000 1.0000
80.0000 567.0000 1.0000
80.0200 539.0000 1.0000
80.0400 545.0000 1.0000
80.0600 541.0000 1.0000
80.0800 584.0000 1.0000
80.1000 548.0000 1.0000
80.1200 577.0000 1.0000
80.1400 566.0000 1.0000
80.1600 546.0000 1.0000
80.1800 564.0000 1.0000
80.2000 555.0000 1.0000
80.2200 567.0000 1.0000
80.2400 540.0000 1.0000
80.2600 556.0000 1.0000
80.2800 492.0000 1.0000
80.3000 553.0000 1.0000
80.3200 495.0000 1.0000
80.3400 547.0000 1.0000
80.3600 518.0000 1.0000
80.3800 543.0000 1.0000
80.4000 575.0000 1.0000
80.4200 540.0000 1.0000
80.4400 533.0000 1.0000
80.4600 547.0000 1.0000
80.4800 567.0000 1.0000
80.5000 569.0000 1.0000
80.5200 518.0000 1.0000
80.5400 573.0000 1.0000
80.5600 545.0000 1.0000
80.5800 572.0000 1.0000
80.6000 578.0000 1.0000
80.6200 527.0000 1.0000
80.6400 556.0000 1.0000
80.6600 541.0000 1.0000
80.6800 547.0000 1.0000
80.7000 584.0000 1.0000
80.7200 531.0000 1.0000
80.7400 561.0000 1.0000
80.7600 572.0000 1.0000
80.7800 549.0000 1.0000
80.8000 571.0000 1.0000
80.8200 527.0000 1.0000
80.8400 535.0000 1.0000
80.8600 479.0000 1.0000
80.8800 536.0000 1.0000
80.9000 584.0000 1.0000
80.9200 515.0000 1.0000
80.9400 544.0000 1.0000
80.9600 574.0000 1.0000
80.9800 572.0000 1.0000
81.0000 581.0000 1.0000
81.0200 541.0000 1.0000
81.0400 537.0000 1.0000
81.0600 525.0000 1.0000
81.0800 557.0000 1.0000
81.1000 547.0000 1.0000
81.1200 546.0000 1.0000
81.1400 552.0000 1.0000
81.1600 543.0000 1.0000
81.1800 542.0000 1.0000
81.2000 525.0000 1.0000
81.2200 540.0000 1.0000
81.2400 487.0000 1.0000
81.2600 566.0000 1.0000
81.2800 577.0000 1.0000
81.3000 542.0000 1.0000
81.3200 519.0000 1.0000
81.3400 527.0000 1.0000
81.3600 524.0000 1.0000
81.3800 539.0000 1.0000
81.4000 542.0000 1.0000
81.4200 528.0000 1.0000
81.4400 556.0000 1.0000
81.4600 558.0000 1.0000
81.4800 548.0000 1.0000
81.5000 556.0000 1.0000
81.5200 595.0000 1.0000
81.5400 507.0000 1.0000
81.5600 558.0000 1.0000
81.5800 580.0000 1.0000
81.6000 524.0000 1.0000
81.6200 567.0000 1.0000
81.6400 558.0000 1.0000
81.6600 549.0000 1.0000
81.6800 562.0000 1.0000
81.7000 536.0000 1.0000
81.7200 548.0000 1.0000
81.7400 540.0000 1.0000
81.7600 552.0000 1.0000
81.7800 554.0000 1.0000
81.8000 537.0000 1.0000
81.8200 555.0000 1.0000
81.8400 544.0000 1.0000
81.8600 553.0000 1.0000
81.8800 547.0000 1.0000
81.9000 567.0000 1.0000
81.9200 507.0000 1.0000
81.9400 554.0000 1.0000
81.9600 592.0000 1.0000
81.9800 562.0000 1.0000
82.0000 549.0000 1.0000
82.0200 579.0000 1.0000
82.0400 603.0000 1.0000
82.0600 522.0000 1.0000
82.0800 538.0000 1.0000
82.1000 590.0000 1.0000
82.1200 560.0000 1.0000
82.1400 583.0000 1.0000
82.1600 580.0000 1.0000
82.1800 575.0000 1.0000
82.2000 538.0000 1.0000
82.2200 557.0000 1.0000
82.2400 575.0000 1.0000
82.2600 510.0000 1.0000
82.2800 529.0000 1.0000
82.3000 554.0000 1.0000
82.3200 555.0000 1.0000
82.3400 566.0000 1.0000
82.3600 595.0000 1.0000
82.3800 578.0000 1.0000
82.4000 591.0000 1.0000
82.4200 569.0000 1.0000
82.4400 521.0000 1.0000
82.4600 545.0000 1.0000
82.4800 553.0000 1.0000
82.5000 540.0000 1.0000
82.5200 522.0000 1.0000
82.5400 554.0000 1.0000
82.5600 573.0000 1.0000
82.5800 514.0000 1.0000
82.6000 567.0000 1.0000
82.6200 530.0000 1.0000
82.6400 539.0000 1.0000
82.6600 605.0000 1.0000
82.6800 535.0000 1.0000
82.7000 542.0000 1.0000
82.7200 614.0000 1.0000
82.7400 525.0000 1.0000
82.7600 551.0000 1.0000
82.7800 554.0000 1.0000
82.8000 569.0000 1.0000
82.8200 550.0000 1.0000
82.8400 508.0000 1.0000
82.8600 570.0000 1.0000
82.8800 563.0000 1.0000
82.9000 589.0000 1.0000
82.9200 571.0000 1.0000
82.9400 555.0000 1.0000
82.9600 547.0000 1.0000
82.9800 559.0000 1.0000
83.0000 551.0000 1.0000
83.0200 549.0000 1.0000
83.0400 544.0000 1.0000
83.0600 536.0000 1.0000
83.0800 569.0000 1.0000
83.1000 563.0000 1.0000
83.1200 553.0000 1.0000
83.1400 539.0000 1.0000
83.1600 543.0000 1.0000
83.1800 537.0000 1.0000
83.2000 528.0000 1.0000
83.2200 532.0000 1.0000
83.2400 534.0000 1.0000
83.2600 556.0000 1.0000
83.2800 534.0000 1.0000
83.3000 582.0000 1.0000
83.3200 520.0000 1.0000
83.3400 530.0000 1.0000
83.3600 598.0000 1.0000
83.3800 557.0000 1.0000
83.4000 516.0000 1.0000
83.4200 514.0000 1.0000
83.4400 585.0000 1.0000
83.4600 591.0000 1.0000
83.4800 587.0000 1.0000
83.5000 575.0000 1.0000
83.5200 532.0000 1.0000
83.5400 545.0000 1.0000
83.5600 554.0000 1.0000
83.5800 509.0000 1.0000
83.6000 569.0000 1.0000
83.6200 518.0000 1.0000
83.6400 564.0000 1.0000
83.6600 554.0000 1.0000
83.6800 579.0000 1.0000
83.7000 559.0000 1.0000
83.7200 559.0000 1.0000
83.7400 548.0000 1.0000
83.7600 534.0000 1.0000
83.7800 544.0000 1.0000
83.8000 601.0000 1.0000
83.8200 524.0000 1.0000
83.8400 561.0000 1.0000
83.8600 641.0000 1.0000
83.8800 550.0000 1.0000
83.9000 557.0000 1.0000
83.9200 550.0000 1.0000
83.9400 534.0000 1.0000
83.9600 595.0000 1.0000
83.9800 532.0000 1.0000
84.0000 568.0000 1.0000
84.0200 596.0000 1.0000
84.0400 547.0000 1.0000
84.0600 535.0000 1.0000
84.0800 492.0000 1.0000
84.1000 591.0000 1.0000
84.1200 541.0000 1.0000
84.1400 525.0000 1.0000
84.1600 554.0000 1.0000
84.1800 585.0000 1.0000
84.2000 572.0000 1.0000
84.2200 559.0000 1.0000
84.2400 576.0000 1.0000
84.2600 548.0000 1.0000
84.2800 496.0000 1.0000
84.3000 595.0000 1.0000
84.3200 527.0000 1.0000
84.3400 535.0000 1.0000
84.3600 580.0000 1.0000
84.3800 543.0000 1.0000
84.4000 488.0000 1.0000
84.4200 505.0000 1.0000
84.4400 528.0000 1.0000
84.4600 530.0000 1.0000
84.4800 536.0000 1.0000
84.5000 549.0000 1.0000
84.5200 535.0000 1.0000
84.5400 564.0000 1.0000
84.5600 534.0000 1.0000
84.5800 538.0000 1.0000
84.6000 554.0000 1.0000
84.6200 541.0000 1.0000
84.6400 548.0000 1.0000
84.6600 534.0000 1.0000
84.6800 512.0000 1.0000
84.7000 531.0000 1.0000
84.7200 553.0000 1.0000
84.7400 555.0000 1.0000
84.7600 578.0000 1.0000
84.7800 523.0000 1.0000
84.8000 533.0000 1.0000
84.8200 541.0000 1.0000
84.8400 548.0000 1.0000
84.8600 527.0000 1.0000
84.8800 532.0000 1.0000
84.9000 552.0000 1.0000
84.9200 568.0000 1.0000
84.9400 564.0000 1.0000
84.9600 577.0000 1.0000
84.9800 564.0000 1.0000
85.0000 558.0000 1.0000
85.0200 486.0000 1.0000
85.0400 544.0000 1.0000
85.0600 573.0000 1.0000
85.0800 546.0000 1.0000
85.1000 523.0000 1.0000
85.1200 573.0000 1.0000
85.1400 598.0000 1.0000
85.1600 558.0000 1.0000
85.1800 550.0000 1.0000
85.2000 573.0000 1.0000
85.2200 547.0000 1.0000
85.2400 560.0000 1.0000
85.2600 537.0000 1.0000
85.2800 562.0000 1.0000
85.3000 550.0000 1.0000
85.3200 589.0000 1.0000
85.3400 557.0000 1.0000
85.3600 575.0000 1.0000
85.3800 549.0000 1.0000
85.4000 531.0000 1.0000
85.4200 535.0000 1.0000
85.4400 565.0000 1.0000
85.4600 549.0000 1.0000
85.4800 558.0000 1.0000
85.5000 531.0000 1.0000
85.5200 525.0000 1.0000
85.5400 580.0000 1.0000
85.5600 575.0000 1.0000
85.5800 554.0000 1.0000
85.6000 564.0000 1.0000
85.6200 539.0000 1.0000
85.6400 550.0000 1.0000
85.6600 542.0000 1.0000
85.6800 585.0000 1.0000
85.7000 557.0000 1.0000
85.7200 544.0000 1.0000
85.7400 573.0000 1.0000
85.7600 545.0000 1.0000
85.7800 513.0000 1.0000
85.8000 552.0000 1.0000
85.8200 576.0000 1.0000
85.8400 526.0000 1.0000
85.8600 598.0000 1.0000
85.8800 560.0000 1.0000
85.9000 541.0000 1.0000
85.9200 534.0000 1.0000
85.9400 574.0000 1.0000
85.9600 603.0000 1.0000
85.9800 576.0000 1.0000
86.0000 546.0000 1.0000
86.0200 559.0000 1.0000
86.0400 535.0000 1.0000
86.0600 559.0000 1.0000
86.0800 589.0000 1.0000
86.1000 552.0000 1.0000
86.1200 549.0000 1.0000
86.1400 539.0000 1.0000
86.1600 502.0000 1.0000
86.1800 612.0000 1.0000
86.2000 545.0000 1.0000
86.2200 563.0000 1.0000
86.2400 544.0000 1.0000
86.2600 605.0000 1.0000
86.2800 548.0000 1.0000
86.3000 588.0000 1.0000
86.3200 549.0000 1.0000
86.3400 550.0000 1.0000
86.3600 530.0000 1.0000
86.3800 510.0000 1.0000
86.4000 565.0000 1.0000
86.4200 579.0000 1.0000
86.4400 557.0000 1.0000
86.4600 550.0000 1.0000
86.4800 584.0000 1.0000
86.5000 571.0000 1.0000
86.5200 541.0000 1.0000
86.5400 526.0000 1.0000
86.5600 599.0000 1.0000
86.5800 568.0000 1.0000
86.6000 549.0000 1.0000
86.6200 561.0000 1.0000
86.6400 564.0000 1.0000
86.6600 517.0000 1.0000
86.6800 539.0000 1.0000
86.7000 555.0000 1.0000
86.7200 548.0000 1.0000
86.7400 605.0000 1.0000
86.7600 498.0000 1.0000
86.7800 555.0000 1.0000
86.8000 538.0000 1.0000
86.8200 530.0000 1.0000
86.8400 567.0000 1.0000
86.8600 532.0000 1.0000
86.8800 555.0000 1.0000
86.9000 576.0000 1.0000
86.9200 551.0000 1.0000
86.9400 561.0000 1.0000
86.9600 514.0000 1.0000
86.9800 553.0000 1.0000
87.0000 558.0000 1.0000
87.0200 562.0000 1.0000
87.0400 565.0000 1.0000
87.0600 551.0000 1.0000
87.0800 542.0000 1.0000
87.1000 588.0000 1.0000
87.1200 539.0000 1.0000
87.1400 549.0000 1.0000
87.1600 559.0000 1.0000
87.1800 573.0000 1.0000
87.2000 581.0000 1.0000
87.2200 550.0000 1.0000
87.2400 556.0000 1.0000
87.2600 547.0000 1.0000
87.2800 485.0000 1.0000
87.3000 527.0000 1.0000
87.3200 576.0000 1.0000
87.3400 531.0000 1.0000
87.3600 566.0000 1.0000
87.3800 584.0000 1.0000
87.4000 533.0000 1.0000
87.4200 546.0000 1.0000
87.4400 534.0000 1.0000
87.4600 548.0000 1.0000
87.4800 609.0000 1.0000
87.5000 535.0000 1.0000
87.5200 521.0000 1.0000
87.5400 543.0000 1.0000
87.5600 534.0000 1.0000
87.5800 559.0000 1.0000
87.6000 557.0000 1.0000
87.6200 545.0000 1.0000
87.6400 571.0000 1.0000
87.6600 569.0000 1.0000
87.6800 526.0000 1.0000
87.7000 548.0000 1.0000
87.7200 577.0000 1.0000
87.7400 522.0000 1.0000
87.7600 599.0000 1.0000
87.7800 510.0000 1.0000
87.8000 546.0000 1.0000
87.8200 508.0000 1.0000
87.8400 506.0000 1.0000
87.8600 540.0000 1.0000
87.8800 580.0000 1.0000
87.9000 550.0000 1.0000
87.9200 567.0000 1.0000
87.9400 552.0000 1.0000
87.9600 598.0000 1.0000
87.9800 539.0000 1.0000
88.0000 565.0000 1.0000
88.0200 566.0000 1.0000
88.0400 592.0000 1.0000
88.0600 546.0000 1.0000
88.0800 548.0000 1.0000
88.1000 547.0000 1.0000
88.1200 538.0000 1.0000
88.1400 517.0000 1.0000
88.1600 535.0000 1.0000
88.1800 550.0000 1.0000
88.2000 529.0000 1.0000
88.2200 547.0000 1.0000
88.2400 584.0000 1.0000
88.2600 545.0000 1.0000
88.2800 542.0000 1.0000
88.3000 549.0000 1.0000
88.3200 529.0000 1.0000
88.3400 550.0000 1.0000
88.3600 585.0000 1.0000
88.3800 570.0000 1.0000
88.4000 543.0000 1.0000
88.4200 560.0000 1.0000
88.4400 564.0000 1.0000
88.4600 547.0000 1.0000
88.4800 553.0000 1.0000
88.5000 511.0000 1.0000
88.5200 564.0000 1.0000
88.5400 562.0000 1.0000
88.5600 533.0000 1.0000
88.5800 519.0000 1.0000
88.6000 573.0000 1.0000
88.6200 562.0000 1.0000
88.6400 543.0000 1.0000
88.6600 563.0000 1.0000
88.6800 555.0000 1.0000
88.7000 574.0000 1.0000
88.7200 534.0000 1.0000
88.7400 560.0000 1.0000
88.7600 523.0000 1.0000
88.7800 501.0000 1.0000
88.8000 591.0000 1.0000
88.8200 616.0000 1.0000
88.8400 522.0000 1.0000
88.8600 548.0000 1.0000
88.8800 576.0000 1.0000
88.9000 524.0000 1.0000
88.9200 557.0000 1.0000
88.9400 538.0000 1.0000
88.9600 564.0000 1.0000
88.9800 493.0000 1.0000
89.0000 550.0000 1.0000
89.0200 543.0000 1.0000
89.0400 570.0000 1.0000
89.0600 573.0000 1.0000
89.0800 494.0000 1.0000
89.1000 557.0000 1.0000
89.1200 526.0000 1.0000
89.1400 511.0000 1.0000
89.1600 563.0000 1.0000
89.1800 584.0000 1.0000
89.2000 556.0000 1.0000
89.2200 568.0000 1.0000
89.2400 567.0000 1.0000
89.2600 604.0000 1.0000
89.2800 524.0000 1.0000
89.3000 594.0000 1.0000
89.3200 544.0000 1.0000
89.3400 607.0000 1.0000
89.3600 581.0000 1.0000
89.3800 576.0000 1.0000
89.4000 531.0000 1.0000
89.4200 561.0000 1.0000
89.4400 566.0000 1.0000
89.4600 555.0000 1.0000
89.4800 517.0000 1.0000
89.5000 549.0000 1.0000
89.5200 568.0000 1.0000
89.5400 534.0000 1.0000
89.5600 607.0000 1.0000
89.5800 550.0000 1.0000
89.6000 557.0000 1.0000
89.6200 529.0000 1.0000
89.6400 541.0000 1.0000
89.6600 599.0000 1.0000
89.6800 589.0000 1.0000
89.7000 563.0000 1.0000
89.7200 620.0000 1.0000
89.7400 618.0000 1.0000
89.7600 559.0000 1.0000
89.7800 628.0000 1.0000
89.8000 601.0000 1.0000
89.8200 620.0000 1.0000
89.8400 558.0000 1.0000
89.8600 606.0000 1.0000
89.8800 611.0000 1.0000
89.9000 557.0000 1.0000
89.9200 577.0000 1.0000
89.9400 607.0000 1.0000
89.9600 593.0000 1.0000
89.9800 552.0000 1.0000
90.0000 565.0000 1.0000
*RAS_INT_END
*RAS_DATA_END
