*RAS_DATA_START
*RAS_HEADER_START
*DISP_FMT_X "%.2f"
*DISP_FMT_Y "%.0f"
*DISP_FULLSCALE "2031.6000000000"
*DISP_LINE_COLOR "255.0000000000"
*DISP_LINE_STYLE "0.0000000000"
*DISP_LINE_WIDTH "0.2500000000"
*DISP_NOTE "Collected Data-2"
*DISP_OFFSET_Y "0.0000000000"
*DISP_PEAKSEARCH_UNIT_Y "COUNTS"
*DISP_RANGE_BOTTOM "0.0000000000"
*DISP_RANGE_LEFT "10.0000000000"
*DISP_RANGE_LOGCUTOFF "0.0100000000"
*DISP_RANGE_RIGHT "90.0000000000"
*DISP_RANGE_TOP "2031.6000000000"
*DISP_SCALE_MODE_Y "0.0000000000"
*DISP_TAB_NAME "Theta/2-Theta"
*DISP_TITLE_Y "Intensity"
*DISP_UNIT_Y "COUNTS"
*DISP_WINDOW_NAME "MSG_MACROENGINE"
*FILE_COMMENT " "
*FILE_MD5 ""
*FILE_MEMO " "
*FILE_OPERATOR "Administrator"
*FILE_PART_ID "MEAS_PBEA_00223"
*FILE_SAMPLE "Mars"
*FILE_TYPE "RAS_RAW"
*FILE_USERGROUP "System Manager"
*FILE_VERSION "1.0000000000"
*HW_ATTACHMENT_ID "ATT1031"
*HW_ATTACHMENT_NAME "6サンプルチェンジャ|ASC-6"
*HW_COUNTER_ID-0 "CUT0021"
*HW_COUNTER_ID-1 "CUT0020"
*HW_COUNTER_ID-2 "CUT0020"
*HW_COUNTER_ID-3 "CMC0021"
*HW_COUNTER_NAME-0 "SC-70|SC-70"
*HW_COUNTER_NAME-1 "None|None"
*HW_COUNTER_NAME-2 "None|None"
*HW_COUNTER_NAME-3 "検出器モノクロメータ|Detector monochromator"
*HW_COUNTER_SELECT_NAME "SC-70|SC-70"
*HW_ECP_HV "714.0000000000"
*HW_ECP_HV_UNIT "V"
*HW_GONIOMETER_ID "GON0070"
*HW_GONIOMETER_NAME "MiniFlex 300/600|MiniFlex 300/600"
*HW_GONIOMETER_RADIUS-0 "79.0"
*HW_GONIOMETER_RADIUS-1 "91.5"
*HW_GONIOMETER_RADIUS-2 "150.0"
*HW_GONIOMETER_RADIUS-3 "0"
*HW_GONIOMETER_RADIUS-4 "103.4"
*HW_GONIOMETER_RADIUS-5 "150.0"
*HW_GONIOMETER_RADIUS-6 "46.6"
*HW_GONIOMETER_RADIUS-7 "160.0"
*HW_I_OPT_ID-0 "ISL0021"
*HW_I_OPT_ID-1 "ISO0021"
*HW_I_OPT_NAME-0 "発散スリット|Divergence slit"
*HW_I_OPT_NAME-1 "入射平行スリット|Incident parallel slit"
*HW_R_ATTENUATER_AUTOMODE "0"
*HW_R_OPT_ID-0 "RSS0021"
*HW_R_OPT_ID-1 "RSO0021"
*HW_R_OPT_ID-2 "RRS0021"
*HW_R_OPT_NAME-0 "散乱スリット|Scattering slit"
*HW_R_OPT_NAME-1 "受光平行スリット|Receiving soller slit"
*HW_R_OPT_NAME-2 "受光スリット|Receiving slit"
*HW_SAMPLE_HOLDER_ID "SMP0000"
*HW_SAMPLE_HOLDER_NAME "無し|None"
*HW_XG_CURRENT_MAX "50"
*HW_XG_CURRENT_MIN "2"
*HW_XG_CURRENT_RESOLUTION "2"
*HW_XG_CURRENT_UNIT "mA"
*HW_XG_FOCUS "1mm x 10mm"
*HW_XG_FOCUS_TYPE "Normal"
*HW_XG_ID "1062"
*HW_XG_NAME "300W/600W 封入管-A|300W/600W Sealed tube-A"
*HW_XG_TARGET_ATOMIC_NUMBER "29.0000000000"
*HW_XG_TARGET_NAME "Cu"
*HW_XG_TYPE "Compact"
*HW_XG_VOLTAGE_MAX "60"
*HW_XG_VOLTAGE_MIN "20"
*HW_XG_VOLTAGE_RESOLUTION "2"
*HW_XG_VOLTAGE_UNIT "kV"
*HW_XG_WATT_MAX "2.000"
*HW_XG_WATT_UNIT "kW"
*HW_XG_WAVE_LENGTH_ALPHA1 "1.540593"
*HW_XG_WAVE_LENGTH_ALPHA2 "1.544414"
*HW_XG_WAVE_LENGTH_BETA "1.392250"
*MEAS_COND_AXIS_NAME-0 "Theta/2-Theta"
*MEAS_COND_AXIS_NAME-1 "Spin"
*MEAS_COND_AXIS_NAME-2 "Change"
*MEAS_COND_AXIS_NAME-3 "Soller(inc.)"
*MEAS_COND_AXIS_NAME-4 "IHS"
*MEAS_COND_AXIS_NAME-5 "DS"
*MEAS_COND_AXIS_NAME-6 "SS"
*MEAS_COND_AXIS_NAME-7 "Soller(rec.)"
*MEAS_COND_AXIS_NAME-8 "RS"
*MEAS_COND_AXIS_NAME-9 "Filter"
*MEAS_COND_AXIS_NAME-10 "Monochromator"
*MEAS_COND_AXIS_NAME-11 "HV"
*MEAS_COND_AXIS_NAME-12 "PHA"
*MEAS_COND_AXIS_NAME_INTERNAL-0 "TwoThetaTheta"
*MEAS_COND_AXIS_NAME_INTERNAL-1 "Spin"
*MEAS_COND_AXIS_NAME_INTERNAL-2 "Change"
*MEAS_COND_AXIS_NAME_INTERNAL-3 "IncidentSollerSlit"
*MEAS_COND_AXIS_NAME_INTERNAL-4 "IncidentAxdSlit"
*MEAS_COND_AXIS_NAME_INTERNAL-5 "IncidentSlitBox"
*MEAS_COND_AXIS_NAME_INTERNAL-6 "ReceivingSlitBox1"
*MEAS_COND_AXIS_NAME_INTERNAL-7 "ReceivingSollerSlit"
*MEAS_COND_AXIS_NAME_INTERNAL-8 "ReceivingSlitBox2"
*MEAS_COND_AXIS_NAME_INTERNAL-9 "Filter"
*MEAS_COND_AXIS_NAME_INTERNAL-10 "CounterMonochromator"
*MEAS_COND_AXIS_NAME_INTERNAL-11 "HV"
*MEAS_COND_AXIS_NAME_INTERNAL-12 "PHA"
*MEAS_COND_AXIS_NAME_MAGICNO-0 "268632064.0000000000"
*MEAS_COND_AXIS_NAME_MAGICNO-1 "16842752.0000000000"
*MEAS_COND_AXIS_NAME_MAGICNO-2 "16842752.0000000000"
*MEAS_COND_AXIS_NAME_MAGICNO-3 "20971521.0000000000"
*MEAS_COND_AXIS_NAME_MAGICNO-4 "22020097.0000000000"
*MEAS_COND_AXIS_NAME_MAGICNO-5 "22020097.0000000000"
*MEAS_COND_AXIS_NAME_MAGICNO-6 "23068673.0000000000"
*MEAS_COND_AXIS_NAME_MAGICNO-7 "20971521.0000000000"
*MEAS_COND_AXIS_NAME_MAGICNO-8 "23068673.0000000000"
*MEAS_COND_AXIS_NAME_MAGICNO-9 "20971521.0000000000"
*MEAS_COND_AXIS_NAME_MAGICNO-10 "20971521.0000000000"
*MEAS_COND_AXIS_NAME_MAGICNO-11 "0.0000000000"
*MEAS_COND_AXIS_NAME_MAGICNO-12 "0.0000000000"
*MEAS_COND_AXIS_OFFSET-0 "0.0000000000"
*MEAS_COND_AXIS_OFFSET-1 "-"
*MEAS_COND_AXIS_OFFSET-2 "-"
*MEAS_COND_AXIS_OFFSET-3 "-"
*MEAS_COND_AXIS_OFFSET-4 "-"
*MEAS_COND_AXIS_OFFSET-5 "-"
*MEAS_COND_AXIS_OFFSET-6 "-"
*MEAS_COND_AXIS_OFFSET-7 "-"
*MEAS_COND_AXIS_OFFSET-8 "-"
*MEAS_COND_AXIS_OFFSET-9 "-"
*MEAS_COND_AXIS_OFFSET-10 "-"
*MEAS_COND_AXIS_OFFSET-11 "-"
*MEAS_COND_AXIS_OFFSET-12 "-"
*MEAS_COND_AXIS_POSITION-0 "90.0100000000"
*MEAS_COND_AXIS_POSITION-1 "0.0000000000"
*MEAS_COND_AXIS_POSITION-2 "4.0000000000"
*MEAS_COND_AXIS_POSITION-3 "2.5deg"
*MEAS_COND_AXIS_POSITION-4 "10.0mm"
*MEAS_COND_AXIS_POSITION-5 "1.250deg"
*MEAS_COND_AXIS_POSITION-6 "13.0mm(Open)"
*MEAS_COND_AXIS_POSITION-7 "5.0deg"
*MEAS_COND_AXIS_POSITION-8 "13.0mm"
*MEAS_COND_AXIS_POSITION-9 "None"
*MEAS_COND_AXIS_POSITION-10 "None"
*MEAS_COND_AXIS_POSITION-11 "714.0000000000"
*MEAS_COND_AXIS_POSITION-12 "568.7500000000"
*MEAS_COND_AXIS_UNIT-0 "deg"
*MEAS_COND_AXIS_UNIT-1 ""
*MEAS_COND_AXIS_UNIT-2 ""
*MEAS_COND_AXIS_UNIT-3 ""
*MEAS_COND_AXIS_UNIT-4 ""
*MEAS_COND_AXIS_UNIT-5 ""
*MEAS_COND_AXIS_UNIT-6 ""
*MEAS_COND_AXIS_UNIT-7 ""
*MEAS_COND_AXIS_UNIT-8 ""
*MEAS_COND_AXIS_UNIT-9 ""
*MEAS_COND_AXIS_UNIT-10 ""
*MEAS_COND_AXIS_UNIT-11 "V"
*MEAS_COND_AXIS_UNIT-12 "mV"
*MEAS_COND_CORRECTION_SLIT_COUNTERMONO "None"
*MEAS_COND_CORRECTION_SLIT_DS "1.250deg"
*MEAS_COND_CORRECTION_SLIT_FILTER "None"
*MEAS_COND_CORRECTION_SLIT_IHS "10.0mm"
*MEAS_COND_CORRECTION_SLIT_RS "13.0mm"
*MEAS_COND_CORRECTION_SLIT_SOLLER_INC "2.5deg"
*MEAS_COND_CORRECTION_SLIT_SOLLER_REC "5.0deg"
*MEAS_COND_CORRECTION_SLIT_SS "13.0mm"
*MEAS_COND_COUNTER_CNTLOSS_CORR "0.0000000000"
*MEAS_COND_COUNTER_PHABASE "568.7500000000"
*MEAS_COND_COUNTER_PHAWINDOW "926.2500000000"
*MEAS_COND_COUNTER_PHA_UNIT "mV"
*MEAS_COND_COUNTER_TAUDIFF "0.2500000000"
*MEAS_COND_COUNTER_TAUINT "0.7500000000"
*MEAS_COND_IRRADIATION_MODE "OFF"
*MEAS_COND_IRRADIATION_WIDTH ""
*MEAS_COND_OPT_ATTR " "
*MEAS_COND_OPT_NAME ""
*MEAS_COND_UNSYMMETRIC_MODE "OFF"
*MEAS_COND_XG_CURRENT "15.0000000000"
*MEAS_COND_XG_VOLTAGE "40.0000000000"
*MEAS_COND_XG_WAVE_TYPE "Ka"
*MEAS_DATA_COUNT "4001.0000000000"
*MEAS_SCAN_AXIS_X "Theta/2-Theta"
*MEAS_SCAN_AXIS_X_INTERNAL "TwoThetaTheta"
*MEAS_SCAN_END_TIME "03/07/24 15:18:39"
*MEAS_SCAN_MODE "CONTINUOUS"
*MEAS_SCAN_MONITOR "0"
*MEAS_SCAN_RESOLUTION_X "0.0025"
*MEAS_SCAN_SPEED "2.0000"
*MEAS_SCAN_SPEED_UNIT "deg/min"
*MEAS_SCAN_SPEED_USER "2.0000"
*MEAS_SCAN_START "10.0000000000"
*MEAS_SCAN_START_TIME "03/07/24 14:38:21"
*MEAS_SCAN_STEP "0.0200000000"
*MEAS_SCAN_STOP "90.0000000000"
*MEAS_SCAN_UNIT_X "deg"
*MEAS_SCAN_UNIT_Y "counts"
*SLIT_SYSTEM "0"
*RAS_HEADER_END
*RAS_INT_START
10.0000 327.0000 1.0000
10.0200 381.0000 1.0000
10.0400 343.0000 1.0000
10.0600 346.0000 1.0000
10.0800 352.0000 1.0000
10.1000 339.0000 1.0000
10.1200 329.0000 1.0000
10.1400 332.0000 1.0000
10.1600 351.0000 1.0000
10.1800 354.0000 1.0000
10.2000 332.0000 1.0000
10.2200 377.0000 1.0000
10.2400 327.0000 1.0000
10.2600 341.0000 1.0000
10.2800 324.0000 1.0000
10.3000 356.0000 1.0000
10.3200 317.0000 1.0000
10.3400 383.0000 1.0000
10.3600 337.0000 1.0000
10.3800 321.0000 1.0000
10.4000 331.0000 1.0000
10.4200 323.0000 1.0000
10.4400 337.0000 1.0000
10.4600 399.0000 1.0000
10.4800 310.0000 1.0000
10.5000 342.0000 1.0000
10.5200 354.0000 1.0000
10.5400 362.0000 1.0000
10.5600 319.0000 1.0000
10.5800 350.0000 1.0000
10.6000 339.0000 1.0000
10.6200 327.0000 1.0000
10.6400 351.0000 1.0000
10.6600 337.0000 1.0000
10.6800 366.0000 1.0000
10.7000 362.0000 1.0000
10.7200 345.0000 1.0000
10.7400 326.0000 1.0000
10.7600 330.0000 1.0000
10.7800 288.0000 1.0000
10.8000 325.0000 1.0000
10.8200 330.0000 1.0000
10.8400 340.0000 1.0000
10.8600 294.0000 1.0000
10.8800 332.0000 1.0000
10.9000 326.0000 1.0000
10.9200 300.0000 1.0000
10.9400 366.0000 1.0000
10.9600 362.0000 1.0000
10.9800 341.0000 1.0000
11.0000 352.0000 1.0000
11.0200 316.0000 1.0000
11.0400 325.0000 1.0000
11.0600 323.0000 1.0000
11.0800 339.0000 1.0000
11.1000 349.0000 1.0000
11.1200 363.0000 1.0000
11.1400 295.0000 1.0000
11.1600 298.0000 1.0000
11.1800 324.0000 1.0000
11.2000 377.0000 1.0000
11.2200 257.0000 1.0000
11.2400 299.0000 1.0000
11.2600 296.0000 1.0000
11.2800 282.0000 1.0000
11.3000 346.0000 1.0000
11.3200 329.0000 1.0000
11.3400 330.0000 1.0000
11.3600 318.0000 1.0000
11.3800 317.0000 1.0000
11.4000 313.0000 1.0000
11.4200 318.0000 1.0000
11.4400 333.0000 1.0000
11.4600 289.0000 1.0000
11.4800 324.0000 1.0000
11.5000 320.0000 1.0000
11.5200 328.0000 1.0000
11.5400 322.0000 1.0000
11.5600 294.0000 1.0000
11.5800 296.0000 1.0000
11.6000 316.0000 1.0000
11.6200 275.0000 1.0000
11.6400 308.0000 1.0000
11.6600 359.0000 1.0000
11.6800 279.0000 1.0000
11.7000 315.0000 1.0000
11.7200 305.0000 1.0000
11.7400 320.0000 1.0000
11.7600 321.0000 1.0000
11.7800 330.0000 1.0000
11.8000 293.0000 1.0000
11.8200 318.0000 1.0000
11.8400 316.0000 1.0000
11.8600 304.0000 1.0000
11.8800 329.0000 1.0000
11.9000 283.0000 1.0000
11.9200 369.0000 1.0000
11.9400 288.0000 1.0000
11.9600 325.0000 1.0000
11.9800 333.0000 1.0000
12.0000 305.0000 1.0000
12.0200 294.0000 1.0000
12.0400 311.0000 1.0000
12.0600 274.0000 1.0000
12.0800 345.0000 1.0000
12.1000 309.0000 1.0000
12.1200 292.0000 1.0000
12.1400 265.0000 1.0000
12.1600 320.0000 1.0000
12.1800 279.0000 1.0000
12.2000 302.0000 1.0000
12.2200 285.0000 1.0000
12.2400 293.0000 1.0000
12.2600 322.0000 1.0000
12.2800 303.0000 1.0000
12.3000 283.0000 1.0000
12.3200 302.0000 1.0000
12.3400 362.0000 1.0000
12.3600 331.0000 1.0000
12.3800 347.0000 1.0000
12.4000 354.0000 1.0000
12.4200 313.0000 1.0000
12.4400 283.0000 1.0000
12.4600 332.0000 1.0000
12.4800 307.0000 1.0000
12.5000 302.0000 1.0000
12.5200 365.0000 1.0000
12.5400 340.0000 1.0000
12.5600 346.0000 1.0000
12.5800 311.0000 1.0000
12.6000 330.0000 1.0000
12.6200 291.0000 1.0000
12.6400 311.0000 1.0000
12.6600 331.0000 1.0000
12.6800 335.0000 1.0000
12.7000 278.0000 1.0000
12.7200 326.0000 1.0000
12.7400 357.0000 1.0000
12.7600 320.0000 1.0000
12.7800 291.0000 1.0000
12.8000 292.0000 1.0000
12.8200 263.0000 1.0000
12.8400 291.0000 1.0000
12.8600 257.0000 1.0000
12.8800 312.0000 1.0000
12.9000 312.0000 1.0000
12.9200 264.0000 1.0000
12.9400 295.0000 1.0000
12.9600 277.0000 1.0000
12.9800 288.0000 1.0000
13.0000 269.0000 1.0000
13.0200 303.0000 1.0000
13.0400 287.0000 1.0000
13.0600 244.0000 1.0000
13.0800 257.0000 1.0000
13.1000 290.0000 1.0000
13.1200 275.0000 1.0000
13.1400 249.0000 1.0000
13.1600 263.0000 1.0000
13.1800 233.0000 1.0000
13.2000 262.0000 1.0000
13.2200 289.0000 1.0000
13.2400 293.0000 1.0000
13.2600 277.0000 1.0000
13.2800 263.0000 1.0000
13.3000 269.0000 1.0000
13.3200 270.0000 1.0000
13.3400 310.0000 1.0000
13.3600 262.0000 1.0000
13.3800 292.0000 1.0000
13.4000 283.0000 1.0000
13.4200 286.0000 1.0000
13.4400 287.0000 1.0000
13.4600 267.0000 1.0000
13.4800 265.0000 1.0000
13.5000 276.0000 1.0000
13.5200 263.0000 1.0000
13.5400 286.0000 1.0000
13.5600 272.0000 1.0000
13.5800 262.0000 1.0000
13.6000 274.0000 1.0000
13.6200 245.0000 1.0000
13.6400 254.0000 1.0000
13.6600 241.0000 1.0000
13.6800 259.0000 1.0000
13.7000 276.0000 1.0000
13.7200 255.0000 1.0000
13.7400 308.0000 1.0000
13.7600 246.0000 1.0000
13.7800 259.0000 1.0000
13.8000 279.0000 1.0000
13.8200 260.0000 1.0000
13.8400 281.0000 1.0000
13.8600 261.0000 1.0000
13.8800 286.0000 1.0000
13.9000 260.0000 1.0000
13.9200 254.0000 1.0000
13.9400 270.0000 1.0000
13.9600 280.0000 1.0000
13.9800 276.0000 1.0000
14.0000 291.0000 1.0000
14.0200 255.0000 1.0000
14.0400 297.0000 1.0000
14.0600 248.0000 1.0000
14.0800 267.0000 1.0000
14.1000 283.0000 1.0000
14.1200 231.0000 1.0000
14.1400 229.0000 1.0000
14.1600 272.0000 1.0000
14.1800 273.0000 1.0000
14.2000 248.0000 1.0000
14.2200 245.0000 1.0000
14.2400 243.0000 1.0000
14.2600 248.0000 1.0000
14.2800 239.0000 1.0000
14.3000 249.0000 1.0000
14.3200 248.0000 1.0000
14.3400 232.0000 1.0000
14.3600 254.0000 1.0000
14.3800 256.0000 1.0000
14.4000 256.0000 1.0000
14.4200 254.0000 1.0000
14.4400 233.0000 1.0000
14.4600 254.0000 1.0000
14.4800 239.0000 1.0000
14.5000 249.0000 1.0000
14.5200 217.0000 1.0000
14.5400 251.0000 1.0000
14.5600 261.0000 1.0000
14.5800 244.0000 1.0000
14.6000 242.0000 1.0000
14.6200 228.0000 1.0000
14.6400 224.0000 1.0000
14.6600 255.0000 1.0000
14.6800 255.0000 1.0000
14.7000 278.0000 1.0000
14.7200 205.0000 1.0000
14.7400 236.0000 1.0000
14.7600 236.0000 1.0000
14.7800 227.0000 1.0000
14.8000 244.0000 1.0000
14.8200 259.0000 1.0000
14.8400 240.0000 1.0000
14.8600 239.0000 1.0000
14.8800 252.0000 1.0000
14.9000 231.0000 1.0000
14.9200 218.0000 1.0000
14.9400 233.0000 1.0000
14.9600 277.0000 1.0000
14.9800 247.0000 1.0000
15.0000 222.0000 1.0000
15.0200 237.0000 1.0000
15.0400 253.0000 1.0000
15.0600 245.0000 1.0000
15.0800 237.0000 1.0000
15.1000 226.0000 1.0000
15.1200 251.0000 1.0000
15.1400 270.0000 1.0000
15.1600 237.0000 1.0000
15.1800 285.0000 1.0000
15.2000 269.0000 1.0000
15.2200 240.0000 1.0000
15.2400 232.0000 1.0000
15.2600 218.0000 1.0000
15.2800 218.0000 1.0000
15.3000 270.0000 1.0000
15.3200 230.0000 1.0000
15.3400 247.0000 1.0000
15.3600 208.0000 1.0000
15.3800 235.0000 1.0000
15.4000 236.0000 1.0000
15.4200 236.0000 1.0000
15.4400 238.0000 1.0000
15.4600 224.0000 1.0000
15.4800 249.0000 1.0000
15.5000 199.0000 1.0000
15.5200 227.0000 1.0000
15.5400 202.0000 1.0000
15.5600 244.0000 1.0000
15.5800 243.0000 1.0000
15.6000 215.0000 1.0000
15.6200 216.0000 1.0000
15.6400 214.0000 1.0000
15.6600 230.0000 1.0000
15.6800 193.0000 1.0000
15.7000 215.0000 1.0000
15.7200 241.0000 1.0000
15.7400 237.0000 1.0000
15.7600 200.0000 1.0000
15.7800 215.0000 1.0000
15.8000 223.0000 1.0000
15.8200 238.0000 1.0000
15.8400 222.0000 1.0000
15.8600 233.0000 1.0000
15.8800 202.0000 1.0000
15.9000 207.0000 1.0000
15.9200 264.0000 1.0000
15.9400 209.0000 1.0000
15.9600 188.0000 1.0000
15.9800 233.0000 1.0000
16.0000 233.0000 1.0000
16.0200 240.0000 1.0000
16.0400 216.0000 1.0000
16.0600 257.0000 1.0000
16.0800 210.0000 1.0000
16.1000 220.0000 1.0000
16.1200 234.0000 1.0000
16.1400 252.0000 1.0000
16.1600 231.0000 1.0000
16.1800 201.0000 1.0000
16.2000 203.0000 1.0000
16.2200 214.0000 1.0000
16.2400 180.0000 1.0000
16.2600 233.0000 1.0000
16.2800 193.0000 1.0000
16.3000 252.0000 1.0000
16.3200 201.0000 1.0000
16.3400 229.0000 1.0000
16.3600 218.0000 1.0000
16.3800 238.0000 1.0000
16.4000 195.0000 1.0000
16.4200 217.0000 1.0000
16.4400 194.0000 1.0000
16.4600 216.0000 1.0000
16.4800 218.0000 1.0000
16.5000 199.0000 1.0000
16.5200 213.0000 1.0000
16.5400 183.0000 1.0000
16.5600 229.0000 1.0000
16.5800 225.0000 1.0000
16.6000 204.0000 1.0000
16.6200 211.0000 1.0000
16.6400 212.0000 1.0000
16.6600 183.0000 1.0000
16.6800 213.0000 1.0000
16.7000 217.0000 1.0000
16.7200 223.0000 1.0000
16.7400 195.0000 1.0000
16.7600 189.0000 1.0000
16.7800 170.0000 1.0000
16.8000 220.0000 1.0000
16.8200 197.0000 1.0000
16.8400 224.0000 1.0000
16.8600 188.0000 1.0000
16.8800 228.0000 1.0000
16.9000 205.0000 1.0000
16.9200 206.0000 1.0000
16.9400 223.0000 1.0000
16.9600 220.0000 1.0000
16.9800 214.0000 1.0000
17.0000 177.0000 1.0000
17.0200 221.0000 1.0000
17.0400 214.0000 1.0000
17.0600 196.0000 1.0000
17.0800 208.0000 1.0000
17.1000 203.0000 1.0000
17.1200 194.0000 1.0000
17.1400 183.0000 1.0000
17.1600 226.0000 1.0000
17.1800 229.0000 1.0000
17.2000 214.0000 1.0000
17.2200 193.0000 1.0000
17.2400 221.0000 1.0000
17.2600 217.0000 1.0000
17.2800 217.0000 1.0000
17.3000 206.0000 1.0000
17.3200 200.0000 1.0000
17.3400 210.0000 1.0000
17.3600 218.0000 1.0000
17.3800 201.0000 1.0000
17.4000 210.0000 1.0000
17.4200 210.0000 1.0000
17.4400 210.0000 1.0000
17.4600 186.0000 1.0000
17.4800 176.0000 1.0000
17.5000 196.0000 1.0000
17.5200 174.0000 1.0000
17.5400 191.0000 1.0000
17.5600 202.0000 1.0000
17.5800 196.0000 1.0000
17.6000 196.0000 1.0000
17.6200 195.0000 1.0000
17.6400 186.0000 1.0000
17.6600 203.0000 1.0000
17.6800 183.0000 1.0000
17.7000 170.0000 1.0000
17.7200 206.0000 1.0000
17.7400 185.0000 1.0000
17.7600 204.0000 1.0000
17.7800 207.0000 1.0000
17.8000 191.0000 1.0000
17.8200 227.0000 1.0000
17.8400 186.0000 1.0000
17.8600 205.0000 1.0000
17.8800 203.0000 1.0000
17.9000 209.0000 1.0000
17.9200 216.0000 1.0000
17.9400 224.0000 1.0000
17.9600 212.0000 1.0000
17.9800 216.0000 1.0000
18.0000 206.0000 1.0000
18.0200 216.0000 1.0000
18.0400 189.0000 1.0000
18.0600 194.0000 1.0000
18.0800 200.0000 1.0000
18.1000 199.0000 1.0000
18.1200 180.0000 1.0000
18.1400 194.0000 1.0000
18.1600 195.0000 1.0000
18.1800 213.0000 1.0000
18.2000 229.0000 1.0000
18.2200 196.0000 1.0000
18.2400 182.0000 1.0000
18.2600 201.0000 1.0000
18.2800 169.0000 1.0000
18.3000 208.0000 1.0000
18.3200 175.0000 1.0000
18.3400 192.0000 1.0000
18.3600 159.0000 1.0000
18.3800 211.0000 1.0000
18.4000 208.0000 1.0000
18.4200 194.0000 1.0000
18.4400 166.0000 1.0000
18.4600 203.0000 1.0000
18.4800 181.0000 1.0000
18.5000 191.0000 1.0000
18.5200 202.0000 1.0000
18.5400 184.0000 1.0000
18.5600 182.0000 1.0000
18.5800 199.0000 1.0000
18.6000 186.0000 1.0000
18.6200 223.0000 1.0000
18.6400 185.0000 1.0000
18.6600 187.0000 1.0000
18.6800 203.0000 1.0000
18.7000 212.0000 1.0000
18.7200 211.0000 1.0000
18.7400 174.0000 1.0000
18.7600 198.0000 1.0000
18.7800 169.0000 1.0000
18.8000 190.0000 1.0000
18.8200 207.0000 1.0000
18.8400 238.0000 1.0000
18.8600 197.0000 1.0000
18.8800 201.0000 1.0000
18.9000 207.0000 1.0000
18.9200 173.0000 1.0000
18.9400 208.0000 1.0000
18.9600 170.0000 1.0000
18.9800 199.0000 1.0000
19.0000 197.0000 1.0000
19.0200 168.0000 1.0000
19.0400 191.0000 1.0000
19.0600 184.0000 1.0000
19.0800 193.0000 1.0000
19.1000 167.0000 1.0000
19.1200 179.0000 1.0000
19.1400 159.0000 1.0000
19.1600 166.0000 1.0000
19.1800 184.0000 1.0000
19.2000 170.0000 1.0000
19.2200 162.0000 1.0000
19.2400 183.0000 1.0000
19.2600 180.0000 1.0000
19.2800 181.0000 1.0000
19.3000 192.0000 1.0000
19.3200 198.0000 1.0000
19.3400 203.0000 1.0000
19.3600 199.0000 1.0000
19.3800 190.0000 1.0000
19.4000 166.0000 1.0000
19.4200 196.0000 1.0000
19.4400 193.0000 1.0000
19.4600 188.0000 1.0000
19.4800 191.0000 1.0000
19.5000 201.0000 1.0000
19.5200 181.0000 1.0000
19.5400 191.0000 1.0000
19.5600 186.0000 1.0000
19.5800 189.0000 1.0000
19.6000 198.0000 1.0000
19.6200 204.0000 1.0000
19.6400 197.0000 1.0000
19.6600 208.0000 1.0000
19.6800 182.0000 1.0000
19.7000 216.0000 1.0000
19.7200 192.0000 1.0000
19.7400 179.0000 1.0000
19.7600 192.0000 1.0000
19.7800 185.0000 1.0000
19.8000 176.0000 1.0000
19.8200 169.0000 1.0000
19.8400 191.0000 1.0000
19.8600 225.0000 1.0000
19.8800 217.0000 1.0000
19.9000 217.0000 1.0000
19.9200 192.0000 1.0000
19.9400 212.0000 1.0000
19.9600 198.0000 1.0000
19.9800 207.0000 1.0000
20.0000 208.0000 1.0000
20.0200 213.0000 1.0000
20.0400 212.0000 1.0000
20.0600 230.0000 1.0000
20.0800 186.0000 1.0000
20.1000 202.0000 1.0000
20.1200 194.0000 1.0000
20.1400 203.0000 1.0000
20.1600 211.0000 1.0000
20.1800 191.0000 1.0000
20.2000 181.0000 1.0000
20.2200 204.0000 1.0000
20.2400 200.0000 1.0000
20.2600 208.0000 1.0000
20.2800 199.0000 1.0000
20.3000 187.0000 1.0000
20.3200 195.0000 1.0000
20.3400 208.0000 1.0000
20.3600 200.0000 1.0000
20.3800 168.0000 1.0000
20.4000 187.0000 1.0000
20.4200 189.0000 1.0000
20.4400 204.0000 1.0000
20.4600 218.0000 1.0000
20.4800 191.0000 1.0000
20.5000 178.0000 1.0000
20.5200 207.0000 1.0000
20.5400 196.0000 1.0000
20.5600 196.0000 1.0000
20.5800 177.0000 1.0000
20.6000 210.0000 1.0000
20.6200 205.0000 1.0000
20.6400 216.0000 1.0000
20.6600 192.0000 1.0000
20.6800 215.0000 1.0000
20.7000 179.0000 1.0000
20.7200 195.0000 1.0000
20.7400 197.0000 1.0000
20.7600 195.0000 1.0000
20.7800 216.0000 1.0000
20.8000 235.0000 1.0000
20.8200 215.0000 1.0000
20.8400 226.0000 1.0000
20.8600 270.0000 1.0000
20.8800 362.0000 1.0000
20.9000 433.0000 1.0000
20.9200 483.0000 1.0000
20.9400 519.0000 1.0000
20.9600 617.0000 1.0000
20.9800 619.0000 1.0000
21.0000 591.0000 1.0000
21.0200 525.0000 1.0000
21.0400 474.0000 1.0000
21.0600 469.0000 1.0000
21.0800 377.0000 1.0000
21.1000 316.0000 1.0000
21.1200 251.0000 1.0000
21.1400 248.0000 1.0000
21.1600 241.0000 1.0000
21.1800 255.0000 1.0000
21.2000 235.0000 1.0000
21.2200 225.0000 1.0000
21.2400 217.0000 1.0000
21.2600 244.0000 1.0000
21.2800 200.0000 1.0000
21.3000 223.0000 1.0000
21.3200 198.0000 1.0000
21.3400 215.0000 1.0000
21.3600 217.0000 1.0000
21.3800 171.0000 1.0000
21.4000 192.0000 1.0000
21.4200 209.0000 1.0000
21.4400 214.0000 1.0000
21.4600 216.0000 1.0000
21.4800 214.0000 1.0000
21.5000 190.0000 1.0000
21.5200 226.0000 1.0000
21.5400 186.0000 1.0000
21.5600 193.0000 1.0000
21.5800 205.0000 1.0000
21.6000 211.0000 1.0000
21.6200 198.0000 1.0000
21.6400 189.0000 1.0000
21.6600 201.0000 1.0000
21.6800 241.0000 1.0000
21.7000 190.0000 1.0000
21.7200 201.0000 1.0000
21.7400 208.0000 1.0000
21.7600 182.0000 1.0000
21.7800 216.0000 1.0000
21.8000 205.0000 1.0000
21.8200 186.0000 1.0000
21.8400 170.0000 1.0000
21.8600 181.0000 1.0000
21.8800 186.0000 1.0000
21.9000 213.0000 1.0000
21.9200 203.0000 1.0000
21.9400 187.0000 1.0000
21.9600 195.0000 1.0000
21.9800 212.0000 1.0000
22.0000 200.0000 1.0000
22.0200 187.0000 1.0000
22.0400 204.0000 1.0000
22.0600 203.0000 1.0000
22.0800 208.0000 1.0000
22.1000 189.0000 1.0000
22.1200 220.0000 1.0000
22.1400 184.0000 1.0000
22.1600 201.0000 1.0000
22.1800 183.0000 1.0000
22.2000 203.0000 1.0000
22.2200 204.0000 1.0000
22.2400 223.0000 1.0000
22.2600 174.0000 1.0000
22.2800 200.0000 1.0000
22.3000 199.0000 1.0000
22.3200 196.0000 1.0000
22.3400 172.0000 1.0000
22.3600 193.0000 1.0000
22.3800 190.0000 1.0000
22.4000 174.0000 1.0000
22.4200 204.0000 1.0000
22.4400 173.0000 1.0000
22.4600 201.0000 1.0000
22.4800 187.0000 1.0000
22.5000 182.0000 1.0000
22.5200 185.0000 1.0000
22.5400 218.0000 1.0000
22.5600 183.0000 1.0000
22.5800 205.0000 1.0000
22.6000 203.0000 1.0000
22.6200 175.0000 1.0000
22.6400 188.0000 1.0000
22.6600 210.0000 1.0000
22.6800 193.0000 1.0000
22.7000 176.0000 1.0000
22.7200 190.0000 1.0000
22.7400 205.0000 1.0000
22.7600 212.0000 1.0000
22.7800 184.0000 1.0000
22.8000 188.0000 1.0000
22.8200 191.0000 1.0000
22.8400 187.0000 1.0000
22.8600 190.0000 1.0000
22.8800 164.0000 1.0000
22.9000 194.0000 1.0000
22.9200 195.0000 1.0000
22.9400 184.0000 1.0000
22.9600 185.0000 1.0000
22.9800 198.0000 1.0000
23.0000 204.0000 1.0000
23.0200 162.0000 1.0000
23.0400 194.0000 1.0000
23.0600 170.0000 1.0000
23.0800 179.0000 1.0000
23.1000 187.0000 1.0000
23.1200 200.0000 1.0000
23.1400 165.0000 1.0000
23.1600 180.0000 1.0000
23.1800 180.0000 1.0000
23.2000 201.0000 1.0000
23.2200 213.0000 1.0000
23.2400 183.0000 1.0000
23.2600 182.0000 1.0000
23.2800 178.0000 1.0000
23.3000 178.0000 1.0000
23.3200 179.0000 1.0000
23.3400 205.0000 1.0000
23.3600 178.0000 1.0000
23.3800 165.0000 1.0000
23.4000 167.0000 1.0000
23.4200 193.0000 1.0000
23.4400 182.0000 1.0000
23.4600 202.0000 1.0000
23.4800 192.0000 1.0000
23.5000 168.0000 1.0000
23.5200 212.0000 1.0000
23.5400 183.0000 1.0000
23.5600 181.0000 1.0000
23.5800 207.0000 1.0000
23.6000 176.0000 1.0000
23.6200 195.0000 1.0000
23.6400 220.0000 1.0000
23.6600 217.0000 1.0000
23.6800 197.0000 1.0000
23.7000 213.0000 1.0000
23.7200 205.0000 1.0000
23.7400 195.0000 1.0000
23.7600 214.0000 1.0000
23.7800 206.0000 1.0000
23.8000 200.0000 1.0000
23.8200 166.0000 1.0000
23.8400 211.0000 1.0000
23.8600 204.0000 1.0000
23.8800 198.0000 1.0000
23.9000 173.0000 1.0000
23.9200 192.0000 1.0000
23.9400 196.0000 1.0000
23.9600 196.0000 1.0000
23.9800 194.0000 1.0000
24.0000 198.0000 1.0000
24.0200 180.0000 1.0000
24.0400 205.0000 1.0000
24.0600 165.0000 1.0000
24.0800 223.0000 1.0000
24.1000 207.0000 1.0000
24.1200 224.0000 1.0000
24.1400 226.0000 1.0000
24.1600 210.0000 1.0000
24.1800 189.0000 1.0000
24.2000 212.0000 1.0000
24.2200 195.0000 1.0000
24.2400 208.0000 1.0000
24.2600 201.0000 1.0000
24.2800 196.0000 1.0000
24.3000 183.0000 1.0000
24.3200 204.0000 1.0000
24.3400 183.0000 1.0000
24.3600 193.0000 1.0000
24.3800 195.0000 1.0000
24.4000 180.0000 1.0000
24.4200 202.0000 1.0000
24.4400 177.0000 1.0000
24.4600 213.0000 1.0000
24.4800 193.0000 1.0000
24.5000 202.0000 1.0000
24.5200 207.0000 1.0000
24.5400 216.0000 1.0000
24.5600 166.0000 1.0000
24.5800 185.0000 1.0000
24.6000 179.0000 1.0000
24.6200 205.0000 1.0000
24.6400 188.0000 1.0000
24.6600 172.0000 1.0000
24.6800 196.0000 1.0000
24.7000 169.0000 1.0000
24.7200 206.0000 1.0000
24.7400 186.0000 1.0000
24.7600 215.0000 1.0000
24.7800 221.0000 1.0000
24.8000 212.0000 1.0000
24.8200 218.0000 1.0000
24.8400 230.0000 1.0000
24.8600 222.0000 1.0000
24.8800 212.0000 1.0000
24.9000 177.0000 1.0000
24.9200 212.0000 1.0000
24.9400 210.0000 1.0000
24.9600 172.0000 1.0000
24.9800 193.0000 1.0000
25.0000 198.0000 1.0000
25.0200 206.0000 1.0000
25.0400 232.0000 1.0000
25.0600 235.0000 1.0000
25.0800 223.0000 1.0000
25.1000 174.0000 1.0000
25.1200 220.0000 1.0000
25.1400 208.0000 1.0000
25.1600 207.0000 1.0000
25.1800 193.0000 1.0000
25.2000 200.0000 1.0000
25.2200 185.0000 1.0000
25.2400 204.0000 1.0000
25.2600 187.0000 1.0000
25.2800 225.0000 1.0000
25.3000 197.0000 1.0000
25.3200 191.0000 1.0000
25.3400 196.0000 1.0000
25.3600 200.0000 1.0000
25.3800 205.0000 1.0000
25.4000 187.0000 1.0000
25.4200 197.0000 1.0000
25.4400 195.0000 1.0000
25.4600 181.0000 1.0000
25.4800 162.0000 1.0000
25.5000 192.0000 1.0000
25.5200 166.0000 1.0000
25.5400 174.0000 1.0000
25.5600 224.0000 1.0000
25.5800 203.0000 1.0000
25.6000 200.0000 1.0000
25.6200 159.0000 1.0000
25.6400 177.0000 1.0000
25.6600 184.0000 1.0000
25.6800 185.0000 1.0000
25.7000 197.0000 1.0000
25.7200 198.0000 1.0000
25.7400 199.0000 1.0000
25.7600 182.0000 1.0000
25.7800 231.0000 1.0000
25.8000 205.0000 1.0000
25.8200 222.0000 1.0000
25.8400 173.0000 1.0000
25.8600 194.0000 1.0000
25.8800 201.0000 1.0000
25.9000 202.0000 1.0000
25.9200 185.0000 1.0000
25.9400 169.0000 1.0000
25.9600 187.0000 1.0000
25.9800 203.0000 1.0000
26.0000 216.0000 1.0000
26.0200 179.0000 1.0000
26.0400 182.0000 1.0000
26.0600 230.0000 1.0000
26.0800 209.0000 1.0000
26.1000 190.0000 1.0000
26.1200 168.0000 1.0000
26.1400 211.0000 1.0000
26.1600 200.0000 1.0000
26.1800 186.0000 1.0000
26.2000 178.0000 1.0000
26.2200 196.0000 1.0000
26.2400 226.0000 1.0000
26.2600 200.0000 1.0000
26.2800 216.0000 1.0000
26.3000 190.0000 1.0000
26.3200 225.0000 1.0000
26.3400 200.0000 1.0000
26.3600 181.0000 1.0000
26.3800 224.0000 1.0000
26.4000 215.0000 1.0000
26.4200 206.0000 1.0000
26.4400 209.0000 1.0000
26.4600 240.0000 1.0000
26.4800 201.0000 1.0000
26.5000 244.0000 1.0000
26.5200 234.0000 1.0000
26.5400 253.0000 1.0000
26.5600 237.0000 1.0000
26.5800 255.0000 1.0000
26.6000 299.0000 1.0000
26.6200 352.0000 1.0000
26.6400 407.0000 1.0000
26.6600 528.0000 1.0000
26.6800 775.0000 1.0000
26.7000 1041.0000 1.0000
26.7200 1325.0000 1.0000
26.7400 1507.0000 1.0000
26.7600 1638.0000 1.0000
26.7800 1693.0000 1.0000
26.8000 1500.0000 1.0000
26.8200 1316.0000 1.0000
26.8400 1034.0000 1.0000
26.8600 815.0000 1.0000
26.8800 658.0000 1.0000
26.9000 557.0000 1.0000
26.9200 451.0000 1.0000
26.9400 395.0000 1.0000
26.9600 416.0000 1.0000
26.9800 400.0000 1.0000
27.0000 430.0000 1.0000
27.0200 411.0000 1.0000
27.0400 403.0000 1.0000
27.0600 363.0000 1.0000
27.0800 286.0000 1.0000
27.1000 252.0000 1.0000
27.1200 242.0000 1.0000
27.1400 220.0000 1.0000
27.1600 183.0000 1.0000
27.1800 209.0000 1.0000
27.2000 240.0000 1.0000
27.2200 221.0000 1.0000
27.2400 215.0000 1.0000
27.2600 209.0000 1.0000
27.2800 194.0000 1.0000
27.3000 194.0000 1.0000
27.3200 205.0000 1.0000
27.3400 211.0000 1.0000
27.3600 190.0000 1.0000
27.3800 202.0000 1.0000
27.4000 226.0000 1.0000
27.4200 210.0000 1.0000
27.4400 196.0000 1.0000
27.4600 203.0000 1.0000
27.4800 208.0000 1.0000
27.5000 206.0000 1.0000
27.5200 213.0000 1.0000
27.5400 216.0000 1.0000
27.5600 200.0000 1.0000
27.5800 212.0000 1.0000
27.6000 237.0000 1.0000
27.6200 223.0000 1.0000
27.6400 238.0000 1.0000
27.6600 269.0000 1.0000
27.6800 279.0000 1.0000
27.7000 298.0000 1.0000
27.7200 290.0000 1.0000
27.7400 268.0000 1.0000
27.7600 262.0000 1.0000
27.7800 284.0000 1.0000
27.8000 243.0000 1.0000
27.8200 238.0000 1.0000
27.8400 234.0000 1.0000
27.8600 210.0000 1.0000
27.8800 226.0000 1.0000
27.9000 208.0000 1.0000
27.9200 195.0000 1.0000
27.9400 185.0000 1.0000
27.9600 215.0000 1.0000
27.9800 202.0000 1.0000
28.0000 197.0000 1.0000
28.0200 218.0000 1.0000
28.0400 200.0000 1.0000
28.0600 239.0000 1.0000
28.0800 213.0000 1.0000
28.1000 222.0000 1.0000
28.1200 219.0000 1.0000
28.1400 210.0000 1.0000
28.1600 213.0000 1.0000
28.1800 178.0000 1.0000
28.2000 188.0000 1.0000
28.2200 201.0000 1.0000
28.2400 207.0000 1.0000
28.2600 170.0000 1.0000
28.2800 162.0000 1.0000
28.3000 195.0000 1.0000
28.3200 206.0000 1.0000
28.3400 196.0000 1.0000
28.3600 194.0000 1.0000
28.3800 187.0000 1.0000
28.4000 208.0000 1.0000
28.4200 203.0000 1.0000
28.4400 199.0000 1.0000
28.4600 166.0000 1.0000
28.4800 179.0000 1.0000
28.5000 209.0000 1.0000
28.5200 205.0000 1.0000
28.5400 200.0000 1.0000
28.5600 188.0000 1.0000
28.5800 196.0000 1.0000
28.6000 171.0000 1.0000
28.6200 189.0000 1.0000
28.6400 210.0000 1.0000
28.6600 164.0000 1.0000
28.6800 183.0000 1.0000
28.7000 185.0000 1.0000
28.7200 188.0000 1.0000
28.7400 181.0000 1.0000
28.7600 184.0000 1.0000
28.7800 190.0000 1.0000
28.8000 164.0000 1.0000
28.8200 180.0000 1.0000
28.8400 173.0000 1.0000
28.8600 189.0000 1.0000
28.8800 189.0000 1.0000
28.9000 178.0000 1.0000
28.9200 175.0000 1.0000
28.9400 187.0000 1.0000
28.9600 195.0000 1.0000
28.9800 183.0000 1.0000
29.0000 184.0000 1.0000
29.0200 194.0000 1.0000
29.0400 187.0000 1.0000
29.0600 177.0000 1.0000
29.0800 190.0000 1.0000
29.1000 171.0000 1.0000
29.1200 203.0000 1.0000
29.1400 167.0000 1.0000
29.1600 154.0000 1.0000
29.1800 200.0000 1.0000
29.2000 180.0000 1.0000
29.2200 180.0000 1.0000
29.2400 166.0000 1.0000
29.2600 183.0000 1.0000
29.2800 194.0000 1.0000
29.3000 190.0000 1.0000
29.3200 202.0000 1.0000
29.3400 155.0000 1.0000
29.3600 192.0000 1.0000
29.3800 193.0000 1.0000
29.4000 191.0000 1.0000
29.4200 187.0000 1.0000
29.4400 163.0000 1.0000
29.4600 191.0000 1.0000
29.4800 221.0000 1.0000
29.5000 175.0000 1.0000
29.5200 195.0000 1.0000
29.5400 196.0000 1.0000
29.5600 196.0000 1.0000
29.5800 222.0000 1.0000
29.6000 210.0000 1.0000
29.6200 204.0000 1.0000
29.6400 221.0000 1.0000
29.6600 183.0000 1.0000
29.6800 191.0000 1.0000
29.7000 179.0000 1.0000
29.7200 192.0000 1.0000
29.7400 195.0000 1.0000
29.7600 182.0000 1.0000
29.7800 180.0000 1.0000
29.8000 193.0000 1.0000
29.8200 195.0000 1.0000
29.8400 163.0000 1.0000
29.8600 195.0000 1.0000
29.8800 185.0000 1.0000
29.9000 202.0000 1.0000
29.9200 187.0000 1.0000
29.9400 196.0000 1.0000
29.9600 219.0000 1.0000
29.9800 203.0000 1.0000
30.0000 198.0000 1.0000
30.0200 200.0000 1.0000
30.0400 176.0000 1.0000
30.0600 198.0000 1.0000
30.0800 207.0000 1.0000
30.1000 190.0000 1.0000
30.1200 188.0000 1.0000
30.1400 172.0000 1.0000
30.1600 165.0000 1.0000
30.1800 196.0000 1.0000
30.2000 179.0000 1.0000
30.2200 182.0000 1.0000
30.2400 217.0000 1.0000
30.2600 180.0000 1.0000
30.2800 188.0000 1.0000
30.3000 195.0000 1.0000
30.3200 178.0000 1.0000
30.3400 198.0000 1.0000
30.3600 196.0000 1.0000
30.3800 199.0000 1.0000
30.4000 167.0000 1.0000
30.4200 166.0000 1.0000
30.4400 199.0000 1.0000
30.4600 197.0000 1.0000
30.4800 161.0000 1.0000
30.5000 172.0000 1.0000
30.5200 187.0000 1.0000
30.5400 174.0000 1.0000
30.5600 196.0000 1.0000
30.5800 175.0000 1.0000
30.6000 182.0000 1.0000
30.6200 183.0000 1.0000
30.6400 191.0000 1.0000
30.6600 171.0000 1.0000
30.6800 179.0000 1.0000
30.7000 175.0000 1.0000
30.7200 184.0000 1.0000
30.7400 182.0000 1.0000
30.7600 173.0000 1.0000
30.7800 184.0000 1.0000
30.8000 150.0000 1.0000
30.8200 176.0000 1.0000
30.8400 175.0000 1.0000
30.8600 177.0000 1.0000
30.8800 195.0000 1.0000
30.9000 176.0000 1.0000
30.9200 193.0000 1.0000
30.9400 174.0000 1.0000
30.9600 180.0000 1.0000
30.9800 158.0000 1.0000
31.0000 182.0000 1.0000
31.0200 158.0000 1.0000
31.0400 171.0000 1.0000
31.0600 176.0000 1.0000
31.0800 184.0000 1.0000
31.1000 172.0000 1.0000
31.1200 172.0000 1.0000
31.1400 179.0000 1.0000
31.1600 179.0000 1.0000
31.1800 188.0000 1.0000
31.2000 173.0000 1.0000
31.2200 187.0000 1.0000
31.2400 171.0000 1.0000
31.2600 166.0000 1.0000
31.2800 190.0000 1.0000
31.3000 185.0000 1.0000
31.3200 195.0000 1.0000
31.3400 158.0000 1.0000
31.3600 200.0000 1.0000
31.3800 178.0000 1.0000
31.4000 198.0000 1.0000
31.4200 181.0000 1.0000
31.4400 169.0000 1.0000
31.4600 179.0000 1.0000
31.4800 182.0000 1.0000
31.5000 169.0000 1.0000
31.5200 204.0000 1.0000
31.5400 183.0000 1.0000
31.5600 170.0000 1.0000
31.5800 175.0000 1.0000
31.6000 169.0000 1.0000
31.6200 198.0000 1.0000
31.6400 171.0000 1.0000
31.6600 164.0000 1.0000
31.6800 167.0000 1.0000
31.7000 157.0000 1.0000
31.7200 202.0000 1.0000
31.7400 148.0000 1.0000
31.7600 176.0000 1.0000
31.7800 172.0000 1.0000
31.8000 168.0000 1.0000
31.8200 170.0000 1.0000
31.8400 176.0000 1.0000
31.8600 185.0000 1.0000
31.8800 172.0000 1.0000
31.9000 177.0000 1.0000
31.9200 199.0000 1.0000
31.9400 172.0000 1.0000
31.9600 144.0000 1.0000
31.9800 188.0000 1.0000
32.0000 200.0000 1.0000
32.0200 175.0000 1.0000
32.0400 164.0000 1.0000
32.0600 173.0000 1.0000
32.0800 168.0000 1.0000
32.1000 191.0000 1.0000
32.1200 205.0000 1.0000
32.1400 185.0000 1.0000
32.1600 194.0000 1.0000
32.1800 178.0000 1.0000
32.2000 177.0000 1.0000
32.2200 178.0000 1.0000
32.2400 167.0000 1.0000
32.2600 175.0000 1.0000
32.2800 183.0000 1.0000
32.3000 193.0000 1.0000
32.3200 178.0000 1.0000
32.3400 195.0000 1.0000
32.3600 198.0000 1.0000
32.3800 179.0000 1.0000
32.4000 205.0000 1.0000
32.4200 179.0000 1.0000
32.4400 164.0000 1.0000
32.4600 205.0000 1.0000
32.4800 183.0000 1.0000
32.5000 198.0000 1.0000
32.5200 204.0000 1.0000
32.5400 177.0000 1.0000
32.5600 176.0000 1.0000
32.5800 184.0000 1.0000
32.6000 177.0000 1.0000
32.6200 190.0000 1.0000
32.6400 188.0000 1.0000
32.6600 173.0000 1.0000
32.6800 188.0000 1.0000
32.7000 194.0000 1.0000
32.7200 168.0000 1.0000
32.7400 199.0000 1.0000
32.7600 165.0000 1.0000
32.7800 210.0000 1.0000
32.8000 176.0000 1.0000
32.8200 185.0000 1.0000
32.8400 171.0000 1.0000
32.8600 171.0000 1.0000
32.8800 201.0000 1.0000
32.9000 201.0000 1.0000
32.9200 207.0000 1.0000
32.9400 196.0000 1.0000
32.9600 210.0000 1.0000
32.9800 176.0000 1.0000
33.0000 204.0000 1.0000
33.0200 210.0000 1.0000
33.0400 183.0000 1.0000
33.0600 185.0000 1.0000
33.0800 184.0000 1.0000
33.1000 193.0000 1.0000
33.1200 171.0000 1.0000
33.1400 181.0000 1.0000
33.1600 206.0000 1.0000
33.1800 208.0000 1.0000
33.2000 179.0000 1.0000
33.2200 183.0000 1.0000
33.2400 180.0000 1.0000
33.2600 202.0000 1.0000
33.2800 191.0000 1.0000
33.3000 205.0000 1.0000
33.3200 173.0000 1.0000
33.3400 193.0000 1.0000
33.3600 188.0000 1.0000
33.3800 204.0000 1.0000
33.4000 200.0000 1.0000
33.4200 216.0000 1.0000
33.4400 204.0000 1.0000
33.4600 171.0000 1.0000
33.4800 165.0000 1.0000
33.5000 186.0000 1.0000
33.5200 202.0000 1.0000
33.5400 190.0000 1.0000
33.5600 170.0000 1.0000
33.5800 158.0000 1.0000
33.6000 182.0000 1.0000
33.6200 198.0000 1.0000
33.6400 169.0000 1.0000
33.6600 200.0000 1.0000
33.6800 170.0000 1.0000
33.7000 171.0000 1.0000
33.7200 178.0000 1.0000
33.7400 194.0000 1.0000
33.7600 187.0000 1.0000
33.7800 187.0000 1.0000
33.8000 168.0000 1.0000
33.8200 198.0000 1.0000
33.8400 192.0000 1.0000
33.8600 178.0000 1.0000
33.8800 180.0000 1.0000
33.9000 197.0000 1.0000
33.9200 176.0000 1.0000
33.9400 198.0000 1.0000
33.9600 178.0000 1.0000
33.9800 198.0000 1.0000
34.0000 190.0000 1.0000
34.0200 185.0000 1.0000
34.0400 168.0000 1.0000
34.0600 200.0000 1.0000
34.0800 181.0000 1.0000
34.1000 174.0000 1.0000
34.1200 179.0000 1.0000
34.1400 183.0000 1.0000
34.1600 172.0000 1.0000
34.1800 177.0000 1.0000
34.2000 191.0000 1.0000
34.2200 167.0000 1.0000
34.2400 205.0000 1.0000
34.2600 161.0000 1.0000
34.2800 210.0000 1.0000
34.3000 176.0000 1.0000
34.3200 199.0000 1.0000
34.3400 179.0000 1.0000
34.3600 174.0000 1.0000
34.3800 197.0000 1.0000
34.4000 185.0000 1.0000
34.4200 212.0000 1.0000
34.4400 169.0000 1.0000
34.4600 181.0000 1.0000
34.4800 190.0000 1.0000
34.5000 168.0000 1.0000
34.5200 194.0000 1.0000
34.5400 199.0000 1.0000
34.5600 185.0000 1.0000
34.5800 195.0000 1.0000
34.6000 218.0000 1.0000
34.6200 178.0000 1.0000
34.6400 170.0000 1.0000
34.6600 171.0000 1.0000
34.6800 199.0000 1.0000
34.7000 186.0000 1.0000
34.7200 188.0000 1.0000
34.7400 205.0000 1.0000
34.7600 194.0000 1.0000
34.7800 200.0000 1.0000
34.8000 188.0000 1.0000
34.8200 196.0000 1.0000
34.8400 214.0000 1.0000
34.8600 208.0000 1.0000
34.8800 203.0000 1.0000
34.9000 198.0000 1.0000
34.9200 204.0000 1.0000
34.9400 192.0000 1.0000
34.9600 187.0000 1.0000
34.9800 197.0000 1.0000
35.0000 201.0000 1.0000
35.0200 170.0000 1.0000
35.0400 212.0000 1.0000
35.0600 196.0000 1.0000
35.0800 197.0000 1.0000
35.1000 209.0000 1.0000
35.1200 195.0000 1.0000
35.1400 190.0000 1.0000
35.1600 192.0000 1.0000
35.1800 201.0000 1.0000
35.2000 202.0000 1.0000
35.2200 229.0000 1.0000
35.2400 229.0000 1.0000
35.2600 230.0000 1.0000
35.2800 195.0000 1.0000
35.3000 196.0000 1.0000
35.3200 231.0000 1.0000
35.3400 222.0000 1.0000
35.3600 232.0000 1.0000
35.3800 239.0000 1.0000
35.4000 246.0000 1.0000
35.4200 212.0000 1.0000
35.4400 235.0000 1.0000
35.4600 265.0000 1.0000
35.4800 229.0000 1.0000
35.5000 239.0000 1.0000
35.5200 221.0000 1.0000
35.5400 241.0000 1.0000
35.5600 229.0000 1.0000
35.5800 205.0000 1.0000
35.6000 225.0000 1.0000
35.6200 204.0000 1.0000
35.6400 209.0000 1.0000
35.6600 197.0000 1.0000
35.6800 226.0000 1.0000
35.7000 218.0000 1.0000
35.7200 203.0000 1.0000
35.7400 223.0000 1.0000
35.7600 208.0000 1.0000
35.7800 230.0000 1.0000
35.8000 214.0000 1.0000
35.8200 216.0000 1.0000
35.8400 222.0000 1.0000
35.8600 225.0000 1.0000
35.8800 216.0000 1.0000
35.9000 222.0000 1.0000
35.9200 201.0000 1.0000
35.9400 201.0000 1.0000
35.9600 219.0000 1.0000
35.9800 219.0000 1.0000
36.0000 225.0000 1.0000
36.0200 201.0000 1.0000
36.0400 192.0000 1.0000
36.0600 204.0000 1.0000
36.0800 193.0000 1.0000
36.1000 205.0000 1.0000
36.1200 188.0000 1.0000
36.1400 209.0000 1.0000
36.1600 200.0000 1.0000
36.1800 220.0000 1.0000
36.2000 187.0000 1.0000
36.2200 184.0000 1.0000
36.2400 192.0000 1.0000
36.2600 196.0000 1.0000
36.2800 194.0000 1.0000
36.3000 199.0000 1.0000
36.3200 227.0000 1.0000
36.3400 198.0000 1.0000
36.3600 200.0000 1.0000
36.3800 173.0000 1.0000
36.4000 205.0000 1.0000
36.4200 184.0000 1.0000
36.4400 189.0000 1.0000
36.4600 216.0000 1.0000
36.4800 183.0000 1.0000
36.5000 202.0000 1.0000
36.5200 200.0000 1.0000
36.5400 200.0000 1.0000
36.5600 222.0000 1.0000
36.5800 254.0000 1.0000
36.6000 252.0000 1.0000
36.6200 283.0000 1.0000
36.6400 308.0000 1.0000
36.6600 328.0000 1.0000
36.6800 338.0000 1.0000
36.7000 323.0000 1.0000
36.7200 295.0000 1.0000
36.7400 269.0000 1.0000
36.7600 263.0000 1.0000
36.7800 224.0000 1.0000
36.8000 232.0000 1.0000
36.8200 244.0000 1.0000
36.8400 192.0000 1.0000
36.8600 188.0000 1.0000
36.8800 219.0000 1.0000
36.9000 192.0000 1.0000
36.9200 204.0000 1.0000
36.9400 179.0000 1.0000
36.9600 219.0000 1.0000
36.9800 186.0000 1.0000
37.0000 207.0000 1.0000
37.0200 183.0000 1.0000
37.0400 196.0000 1.0000
37.0600 164.0000 1.0000
37.0800 207.0000 1.0000
37.1000 188.0000 1.0000
37.1200 177.0000 1.0000
37.1400 185.0000 1.0000
37.1600 210.0000 1.0000
37.1800 174.0000 1.0000
37.2000 176.0000 1.0000
37.2200 201.0000 1.0000
37.2400 193.0000 1.0000
37.2600 182.0000 1.0000
37.2800 211.0000 1.0000
37.3000 193.0000 1.0000
37.3200 233.0000 1.0000
37.3400 194.0000 1.0000
37.3600 174.0000 1.0000
37.3800 191.0000 1.0000
37.4000 183.0000 1.0000
37.4200 202.0000 1.0000
37.4400 177.0000 1.0000
37.4600 207.0000 1.0000
37.4800 181.0000 1.0000
37.5000 189.0000 1.0000
37.5200 178.0000 1.0000
37.5400 176.0000 1.0000
37.5600 187.0000 1.0000
37.5800 181.0000 1.0000
37.6000 164.0000 1.0000
37.6200 173.0000 1.0000
37.6400 214.0000 1.0000
37.6600 186.0000 1.0000
37.6800 170.0000 1.0000
37.7000 176.0000 1.0000
37.7200 154.0000 1.0000
37.7400 160.0000 1.0000
37.7600 180.0000 1.0000
37.7800 190.0000 1.0000
37.8000 162.0000 1.0000
37.8200 194.0000 1.0000
37.8400 177.0000 1.0000
37.8600 174.0000 1.0000
37.8800 191.0000 1.0000
37.9000 183.0000 1.0000
37.9200 192.0000 1.0000
37.9400 177.0000 1.0000
37.9600 171.0000 1.0000
37.9800 153.0000 1.0000
38.0000 157.0000 1.0000
38.0200 183.0000 1.0000
38.0400 177.0000 1.0000
38.0600 178.0000 1.0000
38.0800 176.0000 1.0000
38.1000 158.0000 1.0000
38.1200 171.0000 1.0000
38.1400 157.0000 1.0000
38.1600 176.0000 1.0000
38.1800 188.0000 1.0000
38.2000 165.0000 1.0000
38.2200 188.0000 1.0000
38.2400 167.0000 1.0000
38.2600 163.0000 1.0000
38.2800 177.0000 1.0000
38.3000 171.0000 1.0000
38.3200 170.0000 1.0000
38.3400 156.0000 1.0000
38.3600 220.0000 1.0000
38.3800 158.0000 1.0000
38.4000 180.0000 1.0000
38.4200 167.0000 1.0000
38.4400 158.0000 1.0000
38.4600 162.0000 1.0000
38.4800 179.0000 1.0000
38.5000 171.0000 1.0000
38.5200 192.0000 1.0000
38.5400 181.0000 1.0000
38.5600 183.0000 1.0000
38.5800 190.0000 1.0000
38.6000 170.0000 1.0000
38.6200 189.0000 1.0000
38.6400 191.0000 1.0000
38.6600 196.0000 1.0000
38.6800 159.0000 1.0000
38.7000 182.0000 1.0000
38.7200 165.0000 1.0000
38.7400 180.0000 1.0000
38.7600 172.0000 1.0000
38.7800 186.0000 1.0000
38.8000 173.0000 1.0000
38.8200 204.0000 1.0000
38.8400 171.0000 1.0000
38.8600 177.0000 1.0000
38.8800 174.0000 1.0000
38.9000 178.0000 1.0000
38.9200 167.0000 1.0000
38.9400 165.0000 1.0000
38.9600 170.0000 1.0000
38.9800 166.0000 1.0000
39.0000 169.0000 1.0000
39.0200 172.0000 1.0000
39.0400 188.0000 1.0000
39.0600 179.0000 1.0000
39.0800 192.0000 1.0000
39.1000 186.0000 1.0000
39.1200 170.0000 1.0000
39.1400 178.0000 1.0000
39.1600 162.0000 1.0000
39.1800 202.0000 1.0000
39.2000 178.0000 1.0000
39.2200 185.0000 1.0000
39.2400 169.0000 1.0000
39.2600 174.0000 1.0000
39.2800 146.0000 1.0000
39.3000 183.0000 1.0000
39.3200 185.0000 1.0000
39.3400 181.0000 1.0000
39.3600 167.0000 1.0000
39.3800 180.0000 1.0000
39.4000 195.0000 1.0000
39.4200 171.0000 1.0000
39.4400 171.0000 1.0000
39.4600 191.0000 1.0000
39.4800 193.0000 1.0000
39.5000 236.0000 1.0000
39.5200 219.0000 1.0000
39.5400 243.0000 1.0000
39.5600 218.0000 1.0000
39.5800 239.0000 1.0000
39.6000 242.0000 1.0000
39.6200 242.0000 1.0000
39.6400 222.0000 1.0000
39.6600 219.0000 1.0000
39.6800 216.0000 1.0000
39.7000 201.0000 1.0000
39.7200 185.0000 1.0000
39.7400 161.0000 1.0000
39.7600 177.0000 1.0000
39.7800 178.0000 1.0000
39.8000 180.0000 1.0000
39.8200 163.0000 1.0000
39.8400 181.0000 1.0000
39.8600 186.0000 1.0000
39.8800 159.0000 1.0000
39.9000 178.0000 1.0000
39.9200 149.0000 1.0000
39.9400 169.0000 1.0000
39.9600 185.0000 1.0000
39.9800 171.0000 1.0000
40.0000 174.0000 1.0000
40.0200 171.0000 1.0000
40.0400 212.0000 1.0000
40.0600 179.0000 1.0000
40.0800 208.0000 1.0000
40.1000 154.0000 1.0000
40.1200 179.0000 1.0000
40.1400 185.0000 1.0000
40.1600 172.0000 1.0000
40.1800 186.0000 1.0000
40.2000 159.0000 1.0000
40.2200 145.0000 1.0000
40.2400 176.0000 1.0000
40.2600 189.0000 1.0000
40.2800 171.0000 1.0000
40.3000 180.0000 1.0000
40.3200 176.0000 1.0000
40.3400 186.0000 1.0000
40.3600 182.0000 1.0000
40.3800 205.0000 1.0000
40.4000 192.0000 1.0000
40.4200 203.0000 1.0000
40.4400 225.0000 1.0000
40.4600 183.0000 1.0000
40.4800 221.0000 1.0000
40.5000 206.0000 1.0000
40.5200 201.0000 1.0000
40.5400 192.0000 1.0000
40.5600 178.0000 1.0000
40.5800 170.0000 1.0000
40.6000 163.0000 1.0000
40.6200 169.0000 1.0000
40.6400 157.0000 1.0000
40.6600 190.0000 1.0000
40.6800 200.0000 1.0000
40.7000 171.0000 1.0000
40.7200 166.0000 1.0000
40.7400 175.0000 1.0000
40.7600 195.0000 1.0000
40.7800 167.0000 1.0000
40.8000 197.0000 1.0000
40.8200 182.0000 1.0000
40.8400 163.0000 1.0000
40.8600 196.0000 1.0000
40.8800 189.0000 1.0000
40.9000 205.0000 1.0000
40.9200 199.0000 1.0000
40.9400 185.0000 1.0000
40.9600 180.0000 1.0000
40.9800 168.0000 1.0000
41.0000 174.0000 1.0000
41.0200 185.0000 1.0000
41.0400 180.0000 1.0000
41.0600 176.0000 1.0000
41.0800 191.0000 1.0000
41.1000 171.0000 1.0000
41.1200 194.0000 1.0000
41.1400 170.0000 1.0000
41.1600 187.0000 1.0000
41.1800 168.0000 1.0000
41.2000 167.0000 1.0000
41.2200 197.0000 1.0000
41.2400 171.0000 1.0000
41.2600 188.0000 1.0000
41.2800 192.0000 1.0000
41.3000 169.0000 1.0000
41.3200 194.0000 1.0000
41.3400 185.0000 1.0000
41.3600 193.0000 1.0000
41.3800 163.0000 1.0000
41.4000 185.0000 1.0000
41.4200 184.0000 1.0000
41.4400 175.0000 1.0000
41.4600 179.0000 1.0000
41.4800 163.0000 1.0000
41.5000 170.0000 1.0000
41.5200 147.0000 1.0000
41.5400 173.0000 1.0000
41.5600 186.0000 1.0000
41.5800 169.0000 1.0000
41.6000 189.0000 1.0000
41.6200 173.0000 1.0000
41.6400 157.0000 1.0000
41.6600 177.0000 1.0000
41.6800 171.0000 1.0000
41.7000 186.0000 1.0000
41.7200 176.0000 1.0000
41.7400 180.0000 1.0000
41.7600 172.0000 1.0000
41.7800 173.0000 1.0000
41.8000 193.0000 1.0000
41.8200 196.0000 1.0000
41.8400 203.0000 1.0000
41.8600 185.0000 1.0000
41.8800 181.0000 1.0000
41.9000 178.0000 1.0000
41.9200 194.0000 1.0000
41.9400 143.0000 1.0000
41.9600 166.0000 1.0000
41.9800 181.0000 1.0000
42.0000 168.0000 1.0000
42.0200 169.0000 1.0000
42.0400 194.0000 1.0000
42.0600 150.0000 1.0000
42.0800 159.0000 1.0000
42.1000 172.0000 1.0000
42.1200 156.0000 1.0000
42.1400 170.0000 1.0000
42.1600 169.0000 1.0000
42.1800 176.0000 1.0000
42.2000 168.0000 1.0000
42.2200 167.0000 1.0000
42.2400 184.0000 1.0000
42.2600 188.0000 1.0000
42.2800 158.0000 1.0000
42.3000 162.0000 1.0000
42.3200 154.0000 1.0000
42.3400 157.0000 1.0000
42.3600 179.0000 1.0000
42.3800 172.0000 1.0000
42.4000 162.0000 1.0000
42.4200 170.0000 1.0000
42.4400 170.0000 1.0000
42.4600 197.0000 1.0000
42.4800 202.0000 1.0000
42.5000 204.0000 1.0000
42.5200 235.0000 1.0000
42.5400 206.0000 1.0000
42.5600 205.0000 1.0000
42.5800 228.0000 1.0000
42.6000 219.0000 1.0000
42.6200 208.0000 1.0000
42.6400 200.0000 1.0000
42.6600 208.0000 1.0000
42.6800 201.0000 1.0000
42.7000 218.0000 1.0000
42.7200 201.0000 1.0000
42.7400 197.0000 1.0000
42.7600 196.0000 1.0000
42.7800 183.0000 1.0000
42.8000 166.0000 1.0000
42.8200 168.0000 1.0000
42.8400 172.0000 1.0000
42.8600 154.0000 1.0000
42.8800 186.0000 1.0000
42.9000 168.0000 1.0000
42.9200 183.0000 1.0000
42.9400 163.0000 1.0000
42.9600 169.0000 1.0000
42.9800 178.0000 1.0000
43.0000 176.0000 1.0000
43.0200 163.0000 1.0000
43.0400 143.0000 1.0000
43.0600 172.0000 1.0000
43.0800 168.0000 1.0000
43.1000 181.0000 1.0000
43.1200 162.0000 1.0000
43.1400 148.0000 1.0000
43.1600 172.0000 1.0000
43.1800 172.0000 1.0000
43.2000 186.0000 1.0000
43.2200 174.0000 1.0000
43.2400 144.0000 1.0000
43.2600 177.0000 1.0000
43.2800 163.0000 1.0000
43.3000 168.0000 1.0000
43.3200 176.0000 1.0000
43.3400 173.0000 1.0000
43.3600 170.0000 1.0000
43.3800 151.0000 1.0000
43.4000 174.0000 1.0000
43.4200 167.0000 1.0000
43.4400 184.0000 1.0000
43.4600 161.0000 1.0000
43.4800 159.0000 1.0000
43.5000 177.0000 1.0000
43.5200 172.0000 1.0000
43.5400 183.0000 1.0000
43.5600 186.0000 1.0000
43.5800 177.0000 1.0000
43.6000 176.0000 1.0000
43.6200 158.0000 1.0000
43.6400 165.0000 1.0000
43.6600 160.0000 1.0000
43.6800 169.0000 1.0000
43.7000 182.0000 1.0000
43.7200 176.0000 1.0000
43.7400 164.0000 1.0000
43.7600 157.0000 1.0000
43.7800 175.0000 1.0000
43.8000 161.0000 1.0000
43.8200 172.0000 1.0000
43.8400 169.0000 1.0000
43.8600 167.0000 1.0000
43.8800 150.0000 1.0000
43.9000 161.0000 1.0000
43.9200 150.0000 1.0000
43.9400 187.0000 1.0000
43.9600 160.0000 1.0000
43.9800 176.0000 1.0000
44.0000 176.0000 1.0000
44.0200 165.0000 1.0000
44.0400 168.0000 1.0000
44.0600 174.0000 1.0000
44.0800 208.0000 1.0000
44.1000 178.0000 1.0000
44.1200 185.0000 1.0000
44.1400 172.0000 1.0000
44.1600 180.0000 1.0000
44.1800 177.0000 1.0000
44.2000 140.0000 1.0000
44.2200 184.0000 1.0000
44.2400 155.0000 1.0000
44.2600 173.0000 1.0000
44.2800 170.0000 1.0000
44.3000 158.0000 1.0000
44.3200 172.0000 1.0000
44.3400 165.0000 1.0000
44.3600 188.0000 1.0000
44.3800 181.0000 1.0000
44.4000 149.0000 1.0000
44.4200 175.0000 1.0000
44.4400 172.0000 1.0000
44.4600 168.0000 1.0000
44.4800 163.0000 1.0000
44.5000 165.0000 1.0000
44.5200 187.0000 1.0000
44.5400 166.0000 1.0000
44.5600 190.0000 1.0000
44.5800 142.0000 1.0000
44.6000 167.0000 1.0000
44.6200 162.0000 1.0000
44.6400 168.0000 1.0000
44.6600 156.0000 1.0000
44.6800 154.0000 1.0000
44.7000 155.0000 1.0000
44.7200 158.0000 1.0000
44.7400 144.0000 1.0000
44.7600 185.0000 1.0000
44.7800 172.0000 1.0000
44.8000 156.0000 1.0000
44.8200 150.0000 1.0000
44.8400 151.0000 1.0000
44.8600 173.0000 1.0000
44.8800 165.0000 1.0000
44.9000 186.0000 1.0000
44.9200 160.0000 1.0000
44.9400 165.0000 1.0000
44.9600 193.0000 1.0000
44.9800 170.0000 1.0000
45.0000 162.0000 1.0000
45.0200 183.0000 1.0000
45.0400 169.0000 1.0000
45.0600 152.0000 1.0000
45.0800 160.0000 1.0000
45.1000 144.0000 1.0000
45.1200 169.0000 1.0000
45.1400 170.0000 1.0000
45.1600 179.0000 1.0000
45.1800 167.0000 1.0000
45.2000 149.0000 1.0000
45.2200 157.0000 1.0000
45.2400 150.0000 1.0000
45.2600 181.0000 1.0000
45.2800 179.0000 1.0000
45.3000 153.0000 1.0000
45.3200 140.0000 1.0000
45.3400 173.0000 1.0000
45.3600 187.0000 1.0000
45.3800 154.0000 1.0000
45.4000 169.0000 1.0000
45.4200 168.0000 1.0000
45.4400 181.0000 1.0000
45.4600 156.0000 1.0000
45.4800 174.0000 1.0000
45.5000 169.0000 1.0000
45.5200 160.0000 1.0000
45.5400 169.0000 1.0000
45.5600 186.0000 1.0000
45.5800 167.0000 1.0000
45.6000 170.0000 1.0000
45.6200 176.0000 1.0000
45.6400 170.0000 1.0000
45.6600 188.0000 1.0000
45.6800 188.0000 1.0000
45.7000 170.0000 1.0000
45.7200 181.0000 1.0000
45.7400 214.0000 1.0000
45.7600 181.0000 1.0000
45.7800 200.0000 1.0000
45.8000 170.0000 1.0000
45.8200 218.0000 1.0000
45.8400 212.0000 1.0000
45.8600 219.0000 1.0000
45.8800 213.0000 1.0000
45.9000 191.0000 1.0000
45.9200 219.0000 1.0000
45.9400 227.0000 1.0000
45.9600 224.0000 1.0000
45.9800 179.0000 1.0000
46.0000 198.0000 1.0000
46.0200 225.0000 1.0000
46.0400 204.0000 1.0000
46.0600 178.0000 1.0000
46.0800 173.0000 1.0000
46.1000 183.0000 1.0000
46.1200 173.0000 1.0000
46.1400 203.0000 1.0000
46.1600 160.0000 1.0000
46.1800 164.0000 1.0000
46.2000 170.0000 1.0000
46.2200 165.0000 1.0000
46.2400 190.0000 1.0000
46.2600 150.0000 1.0000
46.2800 159.0000 1.0000
46.3000 150.0000 1.0000
46.3200 164.0000 1.0000
46.3400 192.0000 1.0000
46.3600 214.0000 1.0000
46.3800 189.0000 1.0000
46.4000 170.0000 1.0000
46.4200 163.0000 1.0000
46.4400 179.0000 1.0000
46.4600 171.0000 1.0000
46.4800 140.0000 1.0000
46.5000 178.0000 1.0000
46.5200 164.0000 1.0000
46.5400 166.0000 1.0000
46.5600 183.0000 1.0000
46.5800 133.0000 1.0000
46.6000 159.0000 1.0000
46.6200 169.0000 1.0000
46.6400 169.0000 1.0000
46.6600 148.0000 1.0000
46.6800 146.0000 1.0000
46.7000 176.0000 1.0000
46.7200 174.0000 1.0000
46.7400 149.0000 1.0000
46.7600 154.0000 1.0000
46.7800 168.0000 1.0000
46.8000 153.0000 1.0000
46.8200 173.0000 1.0000
46.8400 163.0000 1.0000
46.8600 154.0000 1.0000
46.8800 163.0000 1.0000
46.9000 176.0000 1.0000
46.9200 157.0000 1.0000
46.9400 152.0000 1.0000
46.9600 163.0000 1.0000
46.9800 179.0000 1.0000
47.0000 169.0000 1.0000
47.0200 177.0000 1.0000
47.0400 158.0000 1.0000
47.0600 178.0000 1.0000
47.0800 184.0000 1.0000
47.1000 143.0000 1.0000
47.1200 176.0000 1.0000
47.1400 174.0000 1.0000
47.1600 171.0000 1.0000
47.1800 154.0000 1.0000
47.2000 156.0000 1.0000
47.2200 175.0000 1.0000
47.2400 187.0000 1.0000
47.2600 156.0000 1.0000
47.2800 183.0000 1.0000
47.3000 165.0000 1.0000
47.3200 173.0000 1.0000
47.3400 160.0000 1.0000
47.3600 150.0000 1.0000
47.3800 151.0000 1.0000
47.4000 164.0000 1.0000
47.4200 140.0000 1.0000
47.4400 174.0000 1.0000
47.4600 179.0000 1.0000
47.4800 168.0000 1.0000
47.5000 167.0000 1.0000
47.5200 215.0000 1.0000
47.5400 192.0000 1.0000
47.5600 177.0000 1.0000
47.5800 167.0000 1.0000
47.6000 163.0000 1.0000
47.6200 174.0000 1.0000
47.6400 160.0000 1.0000
47.6600 175.0000 1.0000
47.6800 188.0000 1.0000
47.7000 177.0000 1.0000
47.7200 156.0000 1.0000
47.7400 181.0000 1.0000
47.7600 164.0000 1.0000
47.7800 184.0000 1.0000
47.8000 170.0000 1.0000
47.8200 171.0000 1.0000
47.8400 176.0000 1.0000
47.8600 165.0000 1.0000
47.8800 173.0000 1.0000
47.9000 162.0000 1.0000
47.9200 162.0000 1.0000
47.9400 152.0000 1.0000
47.9600 177.0000 1.0000
47.9800 168.0000 1.0000
48.0000 164.0000 1.0000
48.0200 173.0000 1.0000
48.0400 189.0000 1.0000
48.0600 177.0000 1.0000
48.0800 177.0000 1.0000
48.1000 184.0000 1.0000
48.1200 177.0000 1.0000
48.1400 168.0000 1.0000
48.1600 186.0000 1.0000
48.1800 189.0000 1.0000
48.2000 167.0000 1.0000
48.2200 183.0000 1.0000
48.2400 179.0000 1.0000
48.2600 160.0000 1.0000
48.2800 180.0000 1.0000
48.3000 175.0000 1.0000
48.3200 168.0000 1.0000
48.3400 171.0000 1.0000
48.3600 156.0000 1.0000
48.3800 152.0000 1.0000
48.4000 160.0000 1.0000
48.4200 171.0000 1.0000
48.4400 187.0000 1.0000
48.4600 163.0000 1.0000
48.4800 170.0000 1.0000
48.5000 160.0000 1.0000
48.5200 191.0000 1.0000
48.5400 151.0000 1.0000
48.5600 167.0000 1.0000
48.5800 163.0000 1.0000
48.6000 161.0000 1.0000
48.6200 191.0000 1.0000
48.6400 166.0000 1.0000
48.6600 159.0000 1.0000
48.6800 181.0000 1.0000
48.7000 164.0000 1.0000
48.7200 187.0000 1.0000
48.7400 159.0000 1.0000
48.7600 165.0000 1.0000
48.7800 178.0000 1.0000
48.8000 175.0000 1.0000
48.8200 168.0000 1.0000
48.8400 170.0000 1.0000
48.8600 179.0000 1.0000
48.8800 161.0000 1.0000
48.9000 186.0000 1.0000
48.9200 154.0000 1.0000
48.9400 169.0000 1.0000
48.9600 190.0000 1.0000
48.9800 161.0000 1.0000
49.0000 166.0000 1.0000
49.0200 172.0000 1.0000
49.0400 172.0000 1.0000
49.0600 156.0000 1.0000
49.0800 180.0000 1.0000
49.1000 166.0000 1.0000
49.1200 167.0000 1.0000
49.1400 152.0000 1.0000
49.1600 161.0000 1.0000
49.1800 188.0000 1.0000
49.2000 172.0000 1.0000
49.2200 168.0000 1.0000
49.2400 174.0000 1.0000
49.2600 161.0000 1.0000
49.2800 178.0000 1.0000
49.3000 188.0000 1.0000
49.3200 166.0000 1.0000
49.3400 169.0000 1.0000
49.3600 146.0000 1.0000
49.3800 177.0000 1.0000
49.4000 158.0000 1.0000
49.4200 168.0000 1.0000
49.4400 154.0000 1.0000
49.4600 141.0000 1.0000
49.4800 173.0000 1.0000
49.5000 165.0000 1.0000
49.5200 159.0000 1.0000
49.5400 164.0000 1.0000
49.5600 150.0000 1.0000
49.5800 186.0000 1.0000
49.6000 163.0000 1.0000
49.6200 187.0000 1.0000
49.6400 166.0000 1.0000
49.6600 196.0000 1.0000
49.6800 176.0000 1.0000
49.7000 175.0000 1.0000
49.7200 197.0000 1.0000
49.7400 172.0000 1.0000
49.7600 179.0000 1.0000
49.7800 179.0000 1.0000
49.8000 165.0000 1.0000
49.8200 172.0000 1.0000
49.8400 158.0000 1.0000
49.8600 170.0000 1.0000
49.8800 160.0000 1.0000
49.9000 168.0000 1.0000
49.9200 178.0000 1.0000
49.9400 161.0000 1.0000
49.9600 186.0000 1.0000
49.9800 189.0000 1.0000
50.0000 182.0000 1.0000
50.0200 142.0000 1.0000
50.0400 169.0000 1.0000
50.0600 165.0000 1.0000
50.0800 218.0000 1.0000
50.1000 199.0000 1.0000
50.1200 215.0000 1.0000
50.1400 241.0000 1.0000
50.1600 263.0000 1.0000
50.1800 322.0000 1.0000
50.2000 336.0000 1.0000
50.2200 325.0000 1.0000
50.2400 340.0000 1.0000
50.2600 312.0000 1.0000
50.2800 295.0000 1.0000
50.3000 301.0000 1.0000
50.3200 276.0000 1.0000
50.3400 285.0000 1.0000
50.3600 277.0000 1.0000
50.3800 248.0000 1.0000
50.4000 243.0000 1.0000
50.4200 223.0000 1.0000
50.4400 201.0000 1.0000
50.4600 187.0000 1.0000
50.4800 153.0000 1.0000
50.5000 197.0000 1.0000
50.5200 215.0000 1.0000
50.5400 183.0000 1.0000
50.5600 175.0000 1.0000
50.5800 175.0000 1.0000
50.6000 193.0000 1.0000
50.6200 160.0000 1.0000
50.6400 175.0000 1.0000
50.6600 178.0000 1.0000
50.6800 195.0000 1.0000
50.7000 207.0000 1.0000
50.7200 197.0000 1.0000
50.7400 197.0000 1.0000
50.7600 201.0000 1.0000
50.7800 225.0000 1.0000
50.8000 232.0000 1.0000
50.8200 226.0000 1.0000
50.8400 200.0000 1.0000
50.8600 220.0000 1.0000
50.8800 200.0000 1.0000
50.9000 202.0000 1.0000
50.9200 191.0000 1.0000
50.9400 217.0000 1.0000
50.9600 202.0000 1.0000
50.9800 194.0000 1.0000
51.0000 179.0000 1.0000
51.0200 149.0000 1.0000
51.0400 172.0000 1.0000
51.0600 181.0000 1.0000
51.0800 166.0000 1.0000
51.1000 159.0000 1.0000
51.1200 162.0000 1.0000
51.1400 162.0000 1.0000
51.1600 167.0000 1.0000
51.1800 187.0000 1.0000
51.2000 174.0000 1.0000
51.2200 169.0000 1.0000
51.2400 180.0000 1.0000
51.2600 163.0000 1.0000
51.2800 176.0000 1.0000
51.3000 168.0000 1.0000
51.3200 168.0000 1.0000
51.3400 164.0000 1.0000
51.3600 158.0000 1.0000
51.3800 186.0000 1.0000
51.4000 177.0000 1.0000
51.4200 172.0000 1.0000
51.4400 145.0000 1.0000
51.4600 168.0000 1.0000
51.4800 171.0000 1.0000
51.5000 161.0000 1.0000
51.5200 153.0000 1.0000
51.5400 175.0000 1.0000
51.5600 165.0000 1.0000
51.5800 175.0000 1.0000
51.6000 175.0000 1.0000
51.6200 165.0000 1.0000
51.6400 166.0000 1.0000
51.6600 150.0000 1.0000
51.6800 179.0000 1.0000
51.7000 175.0000 1.0000
51.7200 151.0000 1.0000
51.7400 153.0000 1.0000
51.7600 155.0000 1.0000
51.7800 160.0000 1.0000
51.8000 170.0000 1.0000
51.8200 149.0000 1.0000
51.8400 138.0000 1.0000
51.8600 138.0000 1.0000
51.8800 172.0000 1.0000
51.9000 164.0000 1.0000
51.9200 169.0000 1.0000
51.9400 138.0000 1.0000
51.9600 148.0000 1.0000
51.9800 158.0000 1.0000
52.0000 158.0000 1.0000
52.0200 154.0000 1.0000
52.0400 171.0000 1.0000
52.0600 180.0000 1.0000
52.0800 148.0000 1.0000
52.1000 163.0000 1.0000
52.1200 169.0000 1.0000
52.1400 171.0000 1.0000
52.1600 167.0000 1.0000
52.1800 144.0000 1.0000
52.2000 133.0000 1.0000
52.2200 162.0000 1.0000
52.2400 164.0000 1.0000
52.2600 165.0000 1.0000
52.2800 160.0000 1.0000
52.3000 169.0000 1.0000
52.3200 184.0000 1.0000
52.3400 167.0000 1.0000
52.3600 183.0000 1.0000
52.3800 150.0000 1.0000
52.4000 162.0000 1.0000
52.4200 164.0000 1.0000
52.4400 164.0000 1.0000
52.4600 179.0000 1.0000
52.4800 157.0000 1.0000
52.5000 155.0000 1.0000
52.5200 177.0000 1.0000
52.5400 155.0000 1.0000
52.5600 165.0000 1.0000
52.5800 161.0000 1.0000
52.6000 158.0000 1.0000
52.6200 161.0000 1.0000
52.6400 159.0000 1.0000
52.6600 186.0000 1.0000
52.6800 180.0000 1.0000
52.7000 156.0000 1.0000
52.7200 158.0000 1.0000
52.7400 171.0000 1.0000
52.7600 176.0000 1.0000
52.7800 171.0000 1.0000
52.8000 161.0000 1.0000
52.8200 176.0000 1.0000
52.8400 148.0000 1.0000
52.8600 155.0000 1.0000
52.8800 192.0000 1.0000
52.9000 144.0000 1.0000
52.9200 179.0000 1.0000
52.9400 189.0000 1.0000
52.9600 163.0000 1.0000
52.9800 163.0000 1.0000
53.0000 160.0000 1.0000
53.0200 153.0000 1.0000
53.0400 169.0000 1.0000
53.0600 156.0000 1.0000
53.0800 166.0000 1.0000
53.1000 175.0000 1.0000
53.1200 144.0000 1.0000
53.1400 157.0000 1.0000
53.1600 175.0000 1.0000
53.1800 162.0000 1.0000
53.2000 158.0000 1.0000
53.2200 186.0000 1.0000
53.2400 177.0000 1.0000
53.2600 198.0000 1.0000
53.2800 191.0000 1.0000
53.3000 174.0000 1.0000
53.3200 159.0000 1.0000
53.3400 192.0000 1.0000
53.3600 170.0000 1.0000
53.3800 194.0000 1.0000
53.4000 178.0000 1.0000
53.4200 169.0000 1.0000
53.4400 174.0000 1.0000
53.4600 187.0000 1.0000
53.4800 175.0000 1.0000
53.5000 175.0000 1.0000
53.5200 170.0000 1.0000
53.5400 176.0000 1.0000
53.5600 171.0000 1.0000
53.5800 166.0000 1.0000
53.6000 169.0000 1.0000
53.6200 183.0000 1.0000
53.6400 189.0000 1.0000
53.6600 190.0000 1.0000
53.6800 157.0000 1.0000
53.7000 187.0000 1.0000
53.7200 152.0000 1.0000
53.7400 174.0000 1.0000
53.7600 166.0000 1.0000
53.7800 186.0000 1.0000
53.8000 161.0000 1.0000
53.8200 176.0000 1.0000
53.8400 176.0000 1.0000
53.8600 154.0000 1.0000
53.8800 183.0000 1.0000
53.9000 185.0000 1.0000
53.9200 170.0000 1.0000
53.9400 175.0000 1.0000
53.9600 200.0000 1.0000
53.9800 141.0000 1.0000
54.0000 180.0000 1.0000
54.0200 166.0000 1.0000
54.0400 160.0000 1.0000
54.0600 191.0000 1.0000
54.0800 157.0000 1.0000
54.1000 176.0000 1.0000
54.1200 176.0000 1.0000
54.1400 185.0000 1.0000
54.1600 172.0000 1.0000
54.1800 192.0000 1.0000
54.2000 176.0000 1.0000
54.2200 191.0000 1.0000
54.2400 172.0000 1.0000
54.2600 166.0000 1.0000
54.2800 185.0000 1.0000
54.3000 168.0000 1.0000
54.3200 161.0000 1.0000
54.3400 180.0000 1.0000
54.3600 178.0000 1.0000
54.3800 186.0000 1.0000
54.4000 174.0000 1.0000
54.4200 164.0000 1.0000
54.4400 180.0000 1.0000
54.4600 170.0000 1.0000
54.4800 163.0000 1.0000
54.5000 171.0000 1.0000
54.5200 166.0000 1.0000
54.5400 172.0000 1.0000
54.5600 188.0000 1.0000
54.5800 179.0000 1.0000
54.6000 159.0000 1.0000
54.6200 180.0000 1.0000
54.6400 167.0000 1.0000
54.6600 170.0000 1.0000
54.6800 198.0000 1.0000
54.7000 183.0000 1.0000
54.7200 148.0000 1.0000
54.7400 186.0000 1.0000
54.7600 163.0000 1.0000
54.7800 165.0000 1.0000
54.8000 155.0000 1.0000
54.8200 182.0000 1.0000
54.8400 170.0000 1.0000
54.8600 186.0000 1.0000
54.8800 185.0000 1.0000
54.9000 169.0000 1.0000
54.9200 238.0000 1.0000
54.9400 205.0000 1.0000
54.9600 228.0000 1.0000
54.9800 217.0000 1.0000
55.0000 215.0000 1.0000
55.0200 193.0000 1.0000
55.0400 221.0000 1.0000
55.0600 180.0000 1.0000
55.0800 216.0000 1.0000
55.1000 193.0000 1.0000
55.1200 203.0000 1.0000
55.1400 208.0000 1.0000
55.1600 162.0000 1.0000
55.1800 203.0000 1.0000
55.2000 172.0000 1.0000
55.2200 179.0000 1.0000
55.2400 170.0000 1.0000
55.2600 157.0000 1.0000
55.2800 161.0000 1.0000
55.3000 178.0000 1.0000
55.3200 164.0000 1.0000
55.3400 179.0000 1.0000
55.3600 148.0000 1.0000
55.3800 183.0000 1.0000
55.4000 195.0000 1.0000
55.4200 179.0000 1.0000
55.4400 189.0000 1.0000
55.4600 173.0000 1.0000
55.4800 187.0000 1.0000
55.5000 172.0000 1.0000
55.5200 170.0000 1.0000
55.5400 164.0000 1.0000
55.5600 187.0000 1.0000
55.5800 181.0000 1.0000
55.6000 169.0000 1.0000
55.6200 191.0000 1.0000
55.6400 172.0000 1.0000
55.6600 155.0000 1.0000
55.6800 162.0000 1.0000
55.7000 166.0000 1.0000
55.7200 160.0000 1.0000
55.7400 155.0000 1.0000
55.7600 177.0000 1.0000
55.7800 133.0000 1.0000
55.8000 175.0000 1.0000
55.8200 157.0000 1.0000
55.8400 185.0000 1.0000
55.8600 172.0000 1.0000
55.8800 165.0000 1.0000
55.9000 157.0000 1.0000
55.9200 181.0000 1.0000
55.9400 130.0000 1.0000
55.9600 161.0000 1.0000
55.9800 170.0000 1.0000
56.0000 164.0000 1.0000
56.0200 193.0000 1.0000
56.0400 180.0000 1.0000
56.0600 170.0000 1.0000
56.0800 149.0000 1.0000
56.1000 170.0000 1.0000
56.1200 179.0000 1.0000
56.1400 154.0000 1.0000
56.1600 166.0000 1.0000
56.1800 154.0000 1.0000
56.2000 175.0000 1.0000
56.2200 148.0000 1.0000
56.2400 148.0000 1.0000
56.2600 149.0000 1.0000
56.2800 160.0000 1.0000
56.3000 172.0000 1.0000
56.3200 185.0000 1.0000
56.3400 182.0000 1.0000
56.3600 180.0000 1.0000
56.3800 168.0000 1.0000
56.4000 164.0000 1.0000
56.4200 166.0000 1.0000
56.4400 165.0000 1.0000
56.4600 137.0000 1.0000
56.4800 180.0000 1.0000
56.5000 138.0000 1.0000
56.5200 162.0000 1.0000
56.5400 171.0000 1.0000
56.5600 165.0000 1.0000
56.5800 168.0000 1.0000
56.6000 172.0000 1.0000
56.6200 161.0000 1.0000
56.6400 179.0000 1.0000
56.6600 156.0000 1.0000
56.6800 170.0000 1.0000
56.7000 173.0000 1.0000
56.7200 154.0000 1.0000
56.7400 165.0000 1.0000
56.7600 143.0000 1.0000
56.7800 154.0000 1.0000
56.8000 171.0000 1.0000
56.8200 176.0000 1.0000
56.8400 157.0000 1.0000
56.8600 158.0000 1.0000
56.8800 171.0000 1.0000
56.9000 191.0000 1.0000
56.9200 151.0000 1.0000
56.9400 172.0000 1.0000
56.9600 180.0000 1.0000
56.9800 186.0000 1.0000
57.0000 160.0000 1.0000
57.0200 156.0000 1.0000
57.0400 166.0000 1.0000
57.0600 186.0000 1.0000
57.0800 171.0000 1.0000
57.1000 163.0000 1.0000
57.1200 152.0000 1.0000
57.1400 165.0000 1.0000
57.1600 183.0000 1.0000
57.1800 173.0000 1.0000
57.2000 184.0000 1.0000
57.2200 154.0000 1.0000
57.2400 177.0000 1.0000
57.2600 169.0000 1.0000
57.2800 167.0000 1.0000
57.3000 169.0000 1.0000
57.3200 179.0000 1.0000
57.3400 193.0000 1.0000
57.3600 173.0000 1.0000
57.3800 154.0000 1.0000
57.4000 153.0000 1.0000
57.4200 174.0000 1.0000
57.4400 145.0000 1.0000
57.4600 167.0000 1.0000
57.4800 161.0000 1.0000
57.5000 164.0000 1.0000
57.5200 195.0000 1.0000
57.5400 185.0000 1.0000
57.5600 167.0000 1.0000
57.5800 151.0000 1.0000
57.6000 129.0000 1.0000
57.6200 168.0000 1.0000
57.6400 157.0000 1.0000
57.6600 163.0000 1.0000
57.6800 164.0000 1.0000
57.7000 165.0000 1.0000
57.7200 154.0000 1.0000
57.7400 186.0000 1.0000
57.7600 165.0000 1.0000
57.7800 163.0000 1.0000
57.8000 162.0000 1.0000
57.8200 173.0000 1.0000
57.8400 168.0000 1.0000
57.8600 142.0000 1.0000
57.8800 162.0000 1.0000
57.9000 154.0000 1.0000
57.9200 170.0000 1.0000
57.9400 164.0000 1.0000
57.9600 153.0000 1.0000
57.9800 147.0000 1.0000
58.0000 166.0000 1.0000
58.0200 176.0000 1.0000
58.0400 160.0000 1.0000
58.0600 151.0000 1.0000
58.0800 169.0000 1.0000
58.1000 177.0000 1.0000
58.1200 171.0000 1.0000
58.1400 168.0000 1.0000
58.1600 177.0000 1.0000
58.1800 151.0000 1.0000
58.2000 172.0000 1.0000
58.2200 196.0000 1.0000
58.2400 143.0000 1.0000
58.2600 168.0000 1.0000
58.2800 181.0000 1.0000
58.3000 161.0000 1.0000
58.3200 161.0000 1.0000
58.3400 152.0000 1.0000
58.3600 155.0000 1.0000
58.3800 167.0000 1.0000
58.4000 181.0000 1.0000
58.4200 172.0000 1.0000
58.4400 148.0000 1.0000
58.4600 166.0000 1.0000
58.4800 194.0000 1.0000
58.5000 159.0000 1.0000
58.5200 164.0000 1.0000
58.5400 165.0000 1.0000
58.5600 149.0000 1.0000
58.5800 147.0000 1.0000
58.6000 185.0000 1.0000
58.6200 160.0000 1.0000
58.6400 192.0000 1.0000
58.6600 174.0000 1.0000
58.6800 165.0000 1.0000
58.7000 170.0000 1.0000
58.7200 153.0000 1.0000
58.7400 186.0000 1.0000
58.7600 155.0000 1.0000
58.7800 189.0000 1.0000
58.8000 153.0000 1.0000
58.8200 148.0000 1.0000
58.8400 140.0000 1.0000
58.8600 181.0000 1.0000
58.8800 149.0000 1.0000
58.9000 157.0000 1.0000
58.9200 176.0000 1.0000
58.9400 169.0000 1.0000
58.9600 176.0000 1.0000
58.9800 185.0000 1.0000
59.0000 177.0000 1.0000
59.0200 187.0000 1.0000
59.0400 199.0000 1.0000
59.0600 157.0000 1.0000
59.0800 151.0000 1.0000
59.1000 153.0000 1.0000
59.1200 162.0000 1.0000
59.1400 164.0000 1.0000
59.1600 166.0000 1.0000
59.1800 179.0000 1.0000
59.2000 171.0000 1.0000
59.2200 176.0000 1.0000
59.2400 164.0000 1.0000
59.2600 155.0000 1.0000
59.2800 163.0000 1.0000
59.3000 173.0000 1.0000
59.3200 183.0000 1.0000
59.3400 139.0000 1.0000
59.3600 143.0000 1.0000
59.3800 177.0000 1.0000
59.4000 158.0000 1.0000
59.4200 156.0000 1.0000
59.4400 166.0000 1.0000
59.4600 174.0000 1.0000
59.4800 171.0000 1.0000
59.5000 161.0000 1.0000
59.5200 141.0000 1.0000
59.5400 170.0000 1.0000
59.5600 174.0000 1.0000
59.5800 166.0000 1.0000
59.6000 170.0000 1.0000
59.6200 177.0000 1.0000
59.6400 143.0000 1.0000
59.6600 173.0000 1.0000
59.6800 156.0000 1.0000
59.7000 153.0000 1.0000
59.7200 166.0000 1.0000
59.7400 156.0000 1.0000
59.7600 170.0000 1.0000
59.7800 174.0000 1.0000
59.8000 191.0000 1.0000
59.8200 192.0000 1.0000
59.8400 178.0000 1.0000
59.8600 160.0000 1.0000
59.8800 164.0000 1.0000
59.9000 178.0000 1.0000
59.9200 175.0000 1.0000
59.9400 191.0000 1.0000
59.9600 206.0000 1.0000
59.9800 228.0000 1.0000
60.0000 211.0000 1.0000
60.0200 217.0000 1.0000
60.0400 224.0000 1.0000
60.0600 244.0000 1.0000
60.0800 203.0000 1.0000
60.1000 200.0000 1.0000
60.1200 223.0000 1.0000
60.1400 198.0000 1.0000
60.1600 205.0000 1.0000
60.1800 197.0000 1.0000
60.2000 191.0000 1.0000
60.2200 170.0000 1.0000
60.2400 203.0000 1.0000
60.2600 183.0000 1.0000
60.2800 180.0000 1.0000
60.3000 174.0000 1.0000
60.3200 158.0000 1.0000
60.3400 147.0000 1.0000
60.3600 160.0000 1.0000
60.3800 167.0000 1.0000
60.4000 168.0000 1.0000
60.4200 167.0000 1.0000
60.4400 169.0000 1.0000
60.4600 164.0000 1.0000
60.4800 140.0000 1.0000
60.5000 155.0000 1.0000
60.5200 153.0000 1.0000
60.5400 155.0000 1.0000
60.5600 139.0000 1.0000
60.5800 158.0000 1.0000
60.6000 170.0000 1.0000
60.6200 158.0000 1.0000
60.6400 170.0000 1.0000
60.6600 169.0000 1.0000
60.6800 150.0000 1.0000
60.7000 158.0000 1.0000
60.7200 152.0000 1.0000
60.7400 195.0000 1.0000
60.7600 156.0000 1.0000
60.7800 148.0000 1.0000
60.8000 136.0000 1.0000
60.8200 141.0000 1.0000
60.8400 182.0000 1.0000
60.8600 159.0000 1.0000
60.8800 162.0000 1.0000
60.9000 139.0000 1.0000
60.9200 169.0000 1.0000
60.9400 163.0000 1.0000
60.9600 146.0000 1.0000
60.9800 164.0000 1.0000
61.0000 146.0000 1.0000
61.0200 171.0000 1.0000
61.0400 170.0000 1.0000
61.0600 161.0000 1.0000
61.0800 167.0000 1.0000
61.1000 173.0000 1.0000
61.1200 179.0000 1.0000
61.1400 164.0000 1.0000
61.1600 156.0000 1.0000
61.1800 159.0000 1.0000
61.2000 153.0000 1.0000
61.2200 181.0000 1.0000
61.2400 139.0000 1.0000
61.2600 156.0000 1.0000
61.2800 142.0000 1.0000
61.3000 179.0000 1.0000
61.3200 165.0000 1.0000
61.3400 182.0000 1.0000
61.3600 191.0000 1.0000
61.3800 171.0000 1.0000
61.4000 163.0000 1.0000
61.4200 160.0000 1.0000
61.4400 156.0000 1.0000
61.4600 169.0000 1.0000
61.4800 161.0000 1.0000
61.5000 172.0000 1.0000
61.5200 165.0000 1.0000
61.5400 190.0000 1.0000
61.5600 153.0000 1.0000
61.5800 168.0000 1.0000
61.6000 164.0000 1.0000
61.6200 168.0000 1.0000
61.6400 163.0000 1.0000
61.6600 153.0000 1.0000
61.6800 185.0000 1.0000
61.7000 169.0000 1.0000
61.7200 192.0000 1.0000
61.7400 180.0000 1.0000
61.7600 166.0000 1.0000
61.7800 169.0000 1.0000
61.8000 150.0000 1.0000
61.8200 187.0000 1.0000
61.8400 168.0000 1.0000
61.8600 175.0000 1.0000
61.8800 153.0000 1.0000
61.9000 190.0000 1.0000
61.9200 179.0000 1.0000
61.9400 167.0000 1.0000
61.9600 155.0000 1.0000
61.9800 158.0000 1.0000
62.0000 176.0000 1.0000
62.0200 154.0000 1.0000
62.0400 172.0000 1.0000
62.0600 158.0000 1.0000
62.0800 180.0000 1.0000
62.1000 142.0000 1.0000
62.1200 168.0000 1.0000
62.1400 186.0000 1.0000
62.1600 171.0000 1.0000
62.1800 154.0000 1.0000
62.2000 179.0000 1.0000
62.2200 180.0000 1.0000
62.2400 170.0000 1.0000
62.2600 159.0000 1.0000
62.2800 185.0000 1.0000
62.3000 177.0000 1.0000
62.3200 159.0000 1.0000
62.3400 168.0000 1.0000
62.3600 177.0000 1.0000
62.3800 163.0000 1.0000
62.4000 166.0000 1.0000
62.4200 164.0000 1.0000
62.4400 180.0000 1.0000
62.4600 168.0000 1.0000
62.4800 162.0000 1.0000
62.5000 144.0000 1.0000
62.5200 146.0000 1.0000
62.5400 151.0000 1.0000
62.5600 165.0000 1.0000
62.5800 165.0000 1.0000
62.6000 182.0000 1.0000
62.6200 164.0000 1.0000
62.6400 153.0000 1.0000
62.6600 186.0000 1.0000
62.6800 197.0000 1.0000
62.7000 146.0000 1.0000
62.7200 163.0000 1.0000
62.7400 171.0000 1.0000
62.7600 173.0000 1.0000
62.7800 162.0000 1.0000
62.8000 162.0000 1.0000
62.8200 154.0000 1.0000
62.8400 176.0000 1.0000
62.8600 179.0000 1.0000
62.8800 152.0000 1.0000
62.9000 163.0000 1.0000
62.9200 169.0000 1.0000
62.9400 148.0000 1.0000
62.9600 162.0000 1.0000
62.9800 173.0000 1.0000
63.0000 179.0000 1.0000
63.0200 166.0000 1.0000
63.0400 175.0000 1.0000
63.0600 183.0000 1.0000
63.0800 133.0000 1.0000
63.1000 179.0000 1.0000
63.1200 148.0000 1.0000
63.1400 193.0000 1.0000
63.1600 184.0000 1.0000
63.1800 158.0000 1.0000
63.2000 170.0000 1.0000
63.2200 167.0000 1.0000
63.2400 183.0000 1.0000
63.2600 155.0000 1.0000
63.2800 146.0000 1.0000
63.3000 152.0000 1.0000
63.3200 175.0000 1.0000
63.3400 186.0000 1.0000
63.3600 150.0000 1.0000
63.3800 165.0000 1.0000
63.4000 172.0000 1.0000
63.4200 169.0000 1.0000
63.4400 180.0000 1.0000
63.4600 180.0000 1.0000
63.4800 169.0000 1.0000
63.5000 167.0000 1.0000
63.5200 157.0000 1.0000
63.5400 195.0000 1.0000
63.5600 169.0000 1.0000
63.5800 149.0000 1.0000
63.6000 144.0000 1.0000
63.6200 176.0000 1.0000
63.6400 174.0000 1.0000
63.6600 178.0000 1.0000
63.6800 170.0000 1.0000
63.7000 189.0000 1.0000
63.7200 185.0000 1.0000
63.7400 148.0000 1.0000
63.7600 181.0000 1.0000
63.7800 153.0000 1.0000
63.8000 184.0000 1.0000
63.8200 197.0000 1.0000
63.8400 161.0000 1.0000
63.8600 152.0000 1.0000
63.8800 166.0000 1.0000
63.9000 154.0000 1.0000
63.9200 166.0000 1.0000
63.9400 186.0000 1.0000
63.9600 167.0000 1.0000
63.9800 191.0000 1.0000
64.0000 170.0000 1.0000
64.0200 185.0000 1.0000
64.0400 181.0000 1.0000
64.0600 165.0000 1.0000
64.0800 190.0000 1.0000
64.1000 186.0000 1.0000
64.1200 182.0000 1.0000
64.1400 170.0000 1.0000
64.1600 187.0000 1.0000
64.1800 180.0000 1.0000
64.2000 178.0000 1.0000
64.2200 200.0000 1.0000
64.2400 171.0000 1.0000
64.2600 149.0000 1.0000
64.2800 167.0000 1.0000
64.3000 180.0000 1.0000
64.3200 203.0000 1.0000
64.3400 159.0000 1.0000
64.3600 201.0000 1.0000
64.3800 180.0000 1.0000
64.4000 166.0000 1.0000
64.4200 151.0000 1.0000
64.4400 185.0000 1.0000
64.4600 163.0000 1.0000
64.4800 160.0000 1.0000
64.5000 149.0000 1.0000
64.5200 171.0000 1.0000
64.5400 167.0000 1.0000
64.5600 155.0000 1.0000
64.5800 163.0000 1.0000
64.6000 159.0000 1.0000
64.6200 155.0000 1.0000
64.6400 183.0000 1.0000
64.6600 170.0000 1.0000
64.6800 167.0000 1.0000
64.7000 161.0000 1.0000
64.7200 163.0000 1.0000
64.7400 151.0000 1.0000
64.7600 169.0000 1.0000
64.7800 160.0000 1.0000
64.8000 163.0000 1.0000
64.8200 165.0000 1.0000
64.8400 165.0000 1.0000
64.8600 181.0000 1.0000
64.8800 160.0000 1.0000
64.9000 167.0000 1.0000
64.9200 177.0000 1.0000
64.9400 153.0000 1.0000
64.9600 151.0000 1.0000
64.9800 149.0000 1.0000
65.0000 161.0000 1.0000
65.0200 179.0000 1.0000
65.0400 172.0000 1.0000
65.0600 163.0000 1.0000
65.0800 152.0000 1.0000
65.1000 136.0000 1.0000
65.1200 143.0000 1.0000
65.1400 160.0000 1.0000
65.1600 147.0000 1.0000
65.1800 153.0000 1.0000
65.2000 166.0000 1.0000
65.2200 155.0000 1.0000
65.2400 152.0000 1.0000
65.2600 163.0000 1.0000
65.2800 146.0000 1.0000
65.3000 142.0000 1.0000
65.3200 166.0000 1.0000
65.3400 174.0000 1.0000
65.3600 168.0000 1.0000
65.3800 167.0000 1.0000
65.4000 169.0000 1.0000
65.4200 148.0000 1.0000
65.4400 138.0000 1.0000
65.4600 188.0000 1.0000
65.4800 166.0000 1.0000
65.5000 142.0000 1.0000
65.5200 145.0000 1.0000
65.5400 182.0000 1.0000
65.5600 159.0000 1.0000
65.5800 143.0000 1.0000
65.6000 144.0000 1.0000
65.6200 153.0000 1.0000
65.6400 168.0000 1.0000
65.6600 174.0000 1.0000
65.6800 183.0000 1.0000
65.7000 154.0000 1.0000
65.7200 137.0000 1.0000
65.7400 151.0000 1.0000
65.7600 155.0000 1.0000
65.7800 166.0000 1.0000
65.8000 171.0000 1.0000
65.8200 182.0000 1.0000
65.8400 191.0000 1.0000
65.8600 160.0000 1.0000
65.8800 167.0000 1.0000
65.9000 152.0000 1.0000
65.9200 165.0000 1.0000
65.9400 143.0000 1.0000
65.9600 154.0000 1.0000
65.9800 162.0000 1.0000
66.0000 148.0000 1.0000
66.0200 174.0000 1.0000
66.0400 184.0000 1.0000
66.0600 186.0000 1.0000
66.0800 131.0000 1.0000
66.1000 162.0000 1.0000
66.1200 152.0000 1.0000
66.1400 155.0000 1.0000
66.1600 150.0000 1.0000
66.1800 172.0000 1.0000
66.2000 169.0000 1.0000
66.2200 154.0000 1.0000
66.2400 155.0000 1.0000
66.2600 167.0000 1.0000
66.2800 170.0000 1.0000
66.3000 171.0000 1.0000
66.3200 165.0000 1.0000
66.3400 166.0000 1.0000
66.3600 172.0000 1.0000
66.3800 163.0000 1.0000
66.4000 143.0000 1.0000
66.4200 152.0000 1.0000
66.4400 169.0000 1.0000
66.4600 153.0000 1.0000
66.4800 174.0000 1.0000
66.5000 158.0000 1.0000
66.5200 171.0000 1.0000
66.5400 162.0000 1.0000
66.5600 158.0000 1.0000
66.5800 140.0000 1.0000
66.6000 164.0000 1.0000
66.6200 144.0000 1.0000
66.6400 155.0000 1.0000
66.6600 137.0000 1.0000
66.6800 153.0000 1.0000
66.7000 160.0000 1.0000
66.7200 164.0000 1.0000
66.7400 163.0000 1.0000
66.7600 144.0000 1.0000
66.7800 134.0000 1.0000
66.8000 148.0000 1.0000
66.8200 138.0000 1.0000
66.8400 177.0000 1.0000
66.8600 153.0000 1.0000
66.8800 140.0000 1.0000
66.9000 133.0000 1.0000
66.9200 159.0000 1.0000
66.9400 162.0000 1.0000
66.9600 152.0000 1.0000
66.9800 156.0000 1.0000
67.0000 155.0000 1.0000
67.0200 148.0000 1.0000
67.0400 164.0000 1.0000
67.0600 148.0000 1.0000
67.0800 160.0000 1.0000
67.1000 148.0000 1.0000
67.1200 166.0000 1.0000
67.1400 162.0000 1.0000
67.1600 164.0000 1.0000
67.1800 153.0000 1.0000
67.2000 149.0000 1.0000
67.2200 147.0000 1.0000
67.2400 165.0000 1.0000
67.2600 186.0000 1.0000
67.2800 166.0000 1.0000
67.3000 149.0000 1.0000
67.3200 155.0000 1.0000
67.3400 161.0000 1.0000
67.3600 166.0000 1.0000
67.3800 164.0000 1.0000
67.4000 174.0000 1.0000
67.4200 175.0000 1.0000
67.4400 158.0000 1.0000
67.4600 178.0000 1.0000
67.4800 178.0000 1.0000
67.5000 143.0000 1.0000
67.5200 149.0000 1.0000
67.5400 164.0000 1.0000
67.5600 162.0000 1.0000
67.5800 160.0000 1.0000
67.6000 170.0000 1.0000
67.6200 179.0000 1.0000
67.6400 190.0000 1.0000
67.6600 162.0000 1.0000
67.6800 165.0000 1.0000
67.7000 182.0000 1.0000
67.7200 172.0000 1.0000
67.7400 186.0000 1.0000
67.7600 202.0000 1.0000
67.7800 202.0000 1.0000
67.8000 217.0000 1.0000
67.8200 227.0000 1.0000
67.8400 176.0000 1.0000
67.8600 187.0000 1.0000
67.8800 186.0000 1.0000
67.9000 175.0000 1.0000
67.9200 182.0000 1.0000
67.9400 173.0000 1.0000
67.9600 194.0000 1.0000
67.9800 225.0000 1.0000
68.0000 191.0000 1.0000
68.0200 223.0000 1.0000
68.0400 180.0000 1.0000
68.0600 187.0000 1.0000
68.0800 170.0000 1.0000
68.1000 199.0000 1.0000
68.1200 188.0000 1.0000
68.1400 202.0000 1.0000
68.1600 205.0000 1.0000
68.1800 219.0000 1.0000
68.2000 228.0000 1.0000
68.2200 246.0000 1.0000
68.2400 242.0000 1.0000
68.2600 252.0000 1.0000
68.2800 233.0000 1.0000
68.3000 222.0000 1.0000
68.3200 231.0000 1.0000
68.3400 226.0000 1.0000
68.3600 228.0000 1.0000
68.3800 248.0000 1.0000
68.4000 224.0000 1.0000
68.4200 228.0000 1.0000
68.4400 230.0000 1.0000
68.4600 233.0000 1.0000
68.4800 218.0000 1.0000
68.5000 248.0000 1.0000
68.5200 200.0000 1.0000
68.5400 158.0000 1.0000
68.5600 170.0000 1.0000
68.5800 185.0000 1.0000
68.6000 201.0000 1.0000
68.6200 176.0000 1.0000
68.6400 187.0000 1.0000
68.6600 180.0000 1.0000
68.6800 153.0000 1.0000
68.7000 177.0000 1.0000
68.7200 168.0000 1.0000
68.7400 189.0000 1.0000
68.7600 175.0000 1.0000
68.7800 150.0000 1.0000
68.8000 178.0000 1.0000
68.8200 150.0000 1.0000
68.8400 164.0000 1.0000
68.8600 135.0000 1.0000
68.8800 146.0000 1.0000
68.9000 158.0000 1.0000
68.9200 165.0000 1.0000
68.9400 159.0000 1.0000
68.9600 154.0000 1.0000
68.9800 174.0000 1.0000
69.0000 150.0000 1.0000
69.0200 177.0000 1.0000
69.0400 176.0000 1.0000
69.0600 147.0000 1.0000
69.0800 170.0000 1.0000
69.1000 165.0000 1.0000
69.1200 146.0000 1.0000
69.1400 162.0000 1.0000
69.1600 163.0000 1.0000
69.1800 147.0000 1.0000
69.2000 154.0000 1.0000
69.2200 186.0000 1.0000
69.2400 166.0000 1.0000
69.2600 153.0000 1.0000
69.2800 142.0000 1.0000
69.3000 188.0000 1.0000
69.3200 168.0000 1.0000
69.3400 160.0000 1.0000
69.3600 162.0000 1.0000
69.3800 147.0000 1.0000
69.4000 173.0000 1.0000
69.4200 177.0000 1.0000
69.4400 154.0000 1.0000
69.4600 157.0000 1.0000
69.4800 168.0000 1.0000
69.5000 143.0000 1.0000
69.5200 183.0000 1.0000
69.5400 170.0000 1.0000
69.5600 156.0000 1.0000
69.5800 140.0000 1.0000
69.6000 171.0000 1.0000
69.6200 141.0000 1.0000
69.6400 132.0000 1.0000
69.6600 158.0000 1.0000
69.6800 156.0000 1.0000
69.7000 157.0000 1.0000
69.7200 169.0000 1.0000
69.7400 150.0000 1.0000
69.7600 171.0000 1.0000
69.7800 172.0000 1.0000
69.8000 140.0000 1.0000
69.8200 141.0000 1.0000
69.8400 155.0000 1.0000
69.8600 150.0000 1.0000
69.8800 189.0000 1.0000
69.9000 163.0000 1.0000
69.9200 196.0000 1.0000
69.9400 143.0000 1.0000
69.9600 163.0000 1.0000
69.9800 171.0000 1.0000
70.0000 164.0000 1.0000
70.0200 142.0000 1.0000
70.0400 150.0000 1.0000
70.0600 153.0000 1.0000
70.0800 160.0000 1.0000
70.1000 144.0000 1.0000
70.1200 151.0000 1.0000
70.1400 168.0000 1.0000
70.1600 152.0000 1.0000
70.1800 188.0000 1.0000
70.2000 152.0000 1.0000
70.2200 173.0000 1.0000
70.2400 157.0000 1.0000
70.2600 151.0000 1.0000
70.2800 153.0000 1.0000
70.3000 142.0000 1.0000
70.3200 151.0000 1.0000
70.3400 181.0000 1.0000
70.3600 158.0000 1.0000
70.3800 146.0000 1.0000
70.4000 153.0000 1.0000
70.4200 143.0000 1.0000
70.4400 149.0000 1.0000
70.4600 176.0000 1.0000
70.4800 165.0000 1.0000
70.5000 146.0000 1.0000
70.5200 138.0000 1.0000
70.5400 142.0000 1.0000
70.5600 154.0000 1.0000
70.5800 135.0000 1.0000
70.6000 186.0000 1.0000
70.6200 157.0000 1.0000
70.6400 164.0000 1.0000
70.6600 143.0000 1.0000
70.6800 158.0000 1.0000
70.7000 155.0000 1.0000
70.7200 143.0000 1.0000
70.7400 139.0000 1.0000
70.7600 163.0000 1.0000
70.7800 171.0000 1.0000
70.8000 134.0000 1.0000
70.8200 128.0000 1.0000
70.8400 167.0000 1.0000
70.8600 162.0000 1.0000
70.8800 164.0000 1.0000
70.9000 171.0000 1.0000
70.9200 151.0000 1.0000
70.9400 172.0000 1.0000
70.9600 155.0000 1.0000
70.9800 173.0000 1.0000
71.0000 172.0000 1.0000
71.0200 163.0000 1.0000
71.0400 142.0000 1.0000
71.0600 147.0000 1.0000
71.0800 155.0000 1.0000
71.1000 142.0000 1.0000
71.1200 173.0000 1.0000
71.1400 148.0000 1.0000
71.1600 151.0000 1.0000
71.1800 167.0000 1.0000
71.2000 167.0000 1.0000
71.2200 153.0000 1.0000
71.2400 161.0000 1.0000
71.2600 189.0000 1.0000
71.2800 165.0000 1.0000
71.3000 154.0000 1.0000
71.3200 165.0000 1.0000
71.3400 155.0000 1.0000
71.3600 155.0000 1.0000
71.3800 146.0000 1.0000
71.4000 137.0000 1.0000
71.4200 155.0000 1.0000
71.4400 157.0000 1.0000
71.4600 164.0000 1.0000
71.4800 135.0000 1.0000
71.5000 164.0000 1.0000
71.5200 137.0000 1.0000
71.5400 149.0000 1.0000
71.5600 157.0000 1.0000
71.5800 129.0000 1.0000
71.6000 176.0000 1.0000
71.6200 159.0000 1.0000
71.6400 159.0000 1.0000
71.6600 175.0000 1.0000
71.6800 151.0000 1.0000
71.7000 166.0000 1.0000
71.7200 151.0000 1.0000
71.7400 166.0000 1.0000
71.7600 135.0000 1.0000
71.7800 162.0000 1.0000
71.8000 137.0000 1.0000
71.8200 147.0000 1.0000
71.8400 169.0000 1.0000
71.8600 159.0000 1.0000
71.8800 157.0000 1.0000
71.9000 159.0000 1.0000
71.9200 158.0000 1.0000
71.9400 154.0000 1.0000
71.9600 138.0000 1.0000
71.9800 168.0000 1.0000
72.0000 179.0000 1.0000
72.0200 143.0000 1.0000
72.0400 167.0000 1.0000
72.0600 178.0000 1.0000
72.0800 179.0000 1.0000
72.1000 166.0000 1.0000
72.1200 171.0000 1.0000
72.1400 161.0000 1.0000
72.1600 159.0000 1.0000
72.1800 181.0000 1.0000
72.2000 165.0000 1.0000
72.2200 163.0000 1.0000
72.2400 149.0000 1.0000
72.2600 160.0000 1.0000
72.2800 158.0000 1.0000
72.3000 142.0000 1.0000
72.3200 143.0000 1.0000
72.3400 141.0000 1.0000
72.3600 153.0000 1.0000
72.3800 161.0000 1.0000
72.4000 174.0000 1.0000
72.4200 149.0000 1.0000
72.4400 159.0000 1.0000
72.4600 173.0000 1.0000
72.4800 167.0000 1.0000
72.5000 168.0000 1.0000
72.5200 140.0000 1.0000
72.5400 148.0000 1.0000
72.5600 148.0000 1.0000
72.5800 147.0000 1.0000
72.6000 150.0000 1.0000
72.6200 158.0000 1.0000
72.6400 147.0000 1.0000
72.6600 157.0000 1.0000
72.6800 153.0000 1.0000
72.7000 144.0000 1.0000
72.7200 184.0000 1.0000
72.7400 160.0000 1.0000
72.7600 182.0000 1.0000
72.7800 140.0000 1.0000
72.8000 151.0000 1.0000
72.8200 158.0000 1.0000
72.8400 145.0000 1.0000
72.8600 155.0000 1.0000
72.8800 185.0000 1.0000
72.9000 171.0000 1.0000
72.9200 183.0000 1.0000
72.9400 155.0000 1.0000
72.9600 136.0000 1.0000
72.9800 153.0000 1.0000
73.0000 159.0000 1.0000
73.0200 145.0000 1.0000
73.0400 161.0000 1.0000
73.0600 159.0000 1.0000
73.0800 142.0000 1.0000
73.1000 162.0000 1.0000
73.1200 175.0000 1.0000
73.1400 179.0000 1.0000
73.1600 174.0000 1.0000
73.1800 179.0000 1.0000
73.2000 150.0000 1.0000
73.2200 140.0000 1.0000
73.2400 167.0000 1.0000
73.2600 155.0000 1.0000
73.2800 161.0000 1.0000
73.3000 147.0000 1.0000
73.3200 173.0000 1.0000
73.3400 180.0000 1.0000
73.3600 185.0000 1.0000
73.3800 155.0000 1.0000
73.4000 144.0000 1.0000
73.4200 162.0000 1.0000
73.4400 164.0000 1.0000
73.4600 160.0000 1.0000
73.4800 163.0000 1.0000
73.5000 144.0000 1.0000
73.5200 168.0000 1.0000
73.5400 170.0000 1.0000
73.5600 137.0000 1.0000
73.5800 189.0000 1.0000
73.6000 164.0000 1.0000
73.6200 138.0000 1.0000
73.6400 121.0000 1.0000
73.6600 172.0000 1.0000
73.6800 174.0000 1.0000
73.7000 151.0000 1.0000
73.7200 164.0000 1.0000
73.7400 172.0000 1.0000
73.7600 173.0000 1.0000
73.7800 160.0000 1.0000
73.8000 176.0000 1.0000
73.8200 146.0000 1.0000
73.8400 189.0000 1.0000
73.8600 171.0000 1.0000
73.8800 165.0000 1.0000
73.9000 162.0000 1.0000
73.9200 142.0000 1.0000
73.9400 161.0000 1.0000
73.9600 155.0000 1.0000
73.9800 170.0000 1.0000
74.0000 152.0000 1.0000
74.0200 151.0000 1.0000
74.0400 176.0000 1.0000
74.0600 171.0000 1.0000
74.0800 151.0000 1.0000
74.1000 155.0000 1.0000
74.1200 167.0000 1.0000
74.1400 170.0000 1.0000
74.1600 152.0000 1.0000
74.1800 140.0000 1.0000
74.2000 166.0000 1.0000
74.2200 174.0000 1.0000
74.2400 145.0000 1.0000
74.2600 176.0000 1.0000
74.2800 175.0000 1.0000
74.3000 148.0000 1.0000
74.3200 150.0000 1.0000
74.3400 161.0000 1.0000
74.3600 177.0000 1.0000
74.3800 164.0000 1.0000
74.4000 136.0000 1.0000
74.4200 146.0000 1.0000
74.4400 162.0000 1.0000
74.4600 181.0000 1.0000
74.4800 157.0000 1.0000
74.5000 163.0000 1.0000
74.5200 161.0000 1.0000
74.5400 152.0000 1.0000
74.5600 150.0000 1.0000
74.5800 170.0000 1.0000
74.6000 169.0000 1.0000
74.6200 159.0000 1.0000
74.6400 127.0000 1.0000
74.6600 167.0000 1.0000
74.6800 164.0000 1.0000
74.7000 169.0000 1.0000
74.7200 145.0000 1.0000
74.7400 157.0000 1.0000
74.7600 158.0000 1.0000
74.7800 148.0000 1.0000
74.8000 171.0000 1.0000
74.8200 153.0000 1.0000
74.8400 161.0000 1.0000
74.8600 175.0000 1.0000
74.8800 148.0000 1.0000
74.9000 152.0000 1.0000
74.9200 165.0000 1.0000
74.9400 175.0000 1.0000
74.9600 163.0000 1.0000
74.9800 157.0000 1.0000
75.0000 168.0000 1.0000
75.0200 175.0000 1.0000
75.0400 143.0000 1.0000
75.0600 146.0000 1.0000
75.0800 168.0000 1.0000
75.1000 168.0000 1.0000
75.1200 146.0000 1.0000
75.1400 149.0000 1.0000
75.1600 163.0000 1.0000
75.1800 170.0000 1.0000
75.2000 152.0000 1.0000
75.2200 161.0000 1.0000
75.2400 156.0000 1.0000
75.2600 163.0000 1.0000
75.2800 161.0000 1.0000
75.3000 157.0000 1.0000
75.3200 153.0000 1.0000
75.3400 164.0000 1.0000
75.3600 162.0000 1.0000
75.3800 171.0000 1.0000
75.4000 158.0000 1.0000
75.4200 148.0000 1.0000
75.4400 160.0000 1.0000
75.4600 161.0000 1.0000
75.4800 158.0000 1.0000
75.5000 162.0000 1.0000
75.5200 147.0000 1.0000
75.5400 138.0000 1.0000
75.5600 152.0000 1.0000
75.5800 161.0000 1.0000
75.6000 147.0000 1.0000
75.6200 183.0000 1.0000
75.6400 156.0000 1.0000
75.6600 167.0000 1.0000
75.6800 173.0000 1.0000
75.7000 161.0000 1.0000
75.7200 153.0000 1.0000
75.7400 168.0000 1.0000
75.7600 168.0000 1.0000
75.7800 178.0000 1.0000
75.8000 169.0000 1.0000
75.8200 161.0000 1.0000
75.8400 140.0000 1.0000
75.8600 162.0000 1.0000
75.8800 162.0000 1.0000
75.9000 149.0000 1.0000
75.9200 184.0000 1.0000
75.9400 178.0000 1.0000
75.9600 165.0000 1.0000
75.9800 162.0000 1.0000
76.0000 149.0000 1.0000
76.0200 144.0000 1.0000
76.0400 149.0000 1.0000
76.0600 157.0000 1.0000
76.0800 147.0000 1.0000
76.1000 140.0000 1.0000
76.1200 158.0000 1.0000
76.1400 166.0000 1.0000
76.1600 163.0000 1.0000
76.1800 163.0000 1.0000
76.2000 143.0000 1.0000
76.2200 153.0000 1.0000
76.2400 151.0000 1.0000
76.2600 178.0000 1.0000
76.2800 137.0000 1.0000
76.3000 151.0000 1.0000
76.3200 150.0000 1.0000
76.3400 148.0000 1.0000
76.3600 146.0000 1.0000
76.3800 140.0000 1.0000
76.4000 163.0000 1.0000
76.4200 171.0000 1.0000
76.4400 183.0000 1.0000
76.4600 153.0000 1.0000
76.4800 166.0000 1.0000
76.5000 140.0000 1.0000
76.5200 177.0000 1.0000
76.5400 144.0000 1.0000
76.5600 165.0000 1.0000
76.5800 161.0000 1.0000
76.6000 150.0000 1.0000
76.6200 156.0000 1.0000
76.6400 156.0000 1.0000
76.6600 136.0000 1.0000
76.6800 161.0000 1.0000
76.7000 153.0000 1.0000
76.7200 171.0000 1.0000
76.7400 144.0000 1.0000
76.7600 151.0000 1.0000
76.7800 148.0000 1.0000
76.8000 125.0000 1.0000
76.8200 154.0000 1.0000
76.8400 166.0000 1.0000
76.8600 149.0000 1.0000
76.8800 174.0000 1.0000
76.9000 146.0000 1.0000
76.9200 170.0000 1.0000
76.9400 134.0000 1.0000
76.9600 157.0000 1.0000
76.9800 154.0000 1.0000
77.0000 149.0000 1.0000
77.0200 140.0000 1.0000
77.0400 158.0000 1.0000
77.0600 169.0000 1.0000
77.0800 134.0000 1.0000
77.1000 126.0000 1.0000
77.1200 147.0000 1.0000
77.1400 149.0000 1.0000
77.1600 175.0000 1.0000
77.1800 156.0000 1.0000
77.2000 155.0000 1.0000
77.2200 152.0000 1.0000
77.2400 156.0000 1.0000
77.2600 148.0000 1.0000
77.2800 163.0000 1.0000
77.3000 152.0000 1.0000
77.3200 142.0000 1.0000
77.3400 143.0000 1.0000
77.3600 141.0000 1.0000
77.3800 139.0000 1.0000
77.4000 166.0000 1.0000
77.4200 160.0000 1.0000
77.4400 163.0000 1.0000
77.4600 141.0000 1.0000
77.4800 142.0000 1.0000
77.5000 153.0000 1.0000
77.5200 162.0000 1.0000
77.5400 147.0000 1.0000
77.5600 145.0000 1.0000
77.5800 173.0000 1.0000
77.6000 160.0000 1.0000
77.6200 162.0000 1.0000
77.6400 163.0000 1.0000
77.6600 150.0000 1.0000
77.6800 211.0000 1.0000
77.7000 168.0000 1.0000
77.7200 205.0000 1.0000
77.7400 164.0000 1.0000
77.7600 168.0000 1.0000
77.7800 190.0000 1.0000
77.8000 164.0000 1.0000
77.8200 156.0000 1.0000
77.8400 167.0000 1.0000
77.8600 154.0000 1.0000
77.8800 155.0000 1.0000
77.9000 165.0000 1.0000
77.9200 160.0000 1.0000
77.9400 176.0000 1.0000
77.9600 183.0000 1.0000
77.9800 165.0000 1.0000
78.0000 156.0000 1.0000
78.0200 181.0000 1.0000
78.0400 160.0000 1.0000
78.0600 170.0000 1.0000
78.0800 151.0000 1.0000
78.1000 156.0000 1.0000
78.1200 125.0000 1.0000
78.1400 158.0000 1.0000
78.1600 163.0000 1.0000
78.1800 135.0000 1.0000
78.2000 161.0000 1.0000
78.2200 142.0000 1.0000
78.2400 148.0000 1.0000
78.2600 171.0000 1.0000
78.2800 161.0000 1.0000
78.3000 140.0000 1.0000
78.3200 145.0000 1.0000
78.3400 132.0000 1.0000
78.3600 142.0000 1.0000
78.3800 168.0000 1.0000
78.4000 171.0000 1.0000
78.4200 173.0000 1.0000
78.4400 167.0000 1.0000
78.4600 149.0000 1.0000
78.4800 164.0000 1.0000
78.5000 164.0000 1.0000
78.5200 168.0000 1.0000
78.5400 163.0000 1.0000
78.5600 162.0000 1.0000
78.5800 148.0000 1.0000
78.6000 139.0000 1.0000
78.6200 157.0000 1.0000
78.6400 143.0000 1.0000
78.6600 152.0000 1.0000
78.6800 134.0000 1.0000
78.7000 185.0000 1.0000
78.7200 154.0000 1.0000
78.7400 158.0000 1.0000
78.7600 141.0000 1.0000
78.7800 157.0000 1.0000
78.8000 175.0000 1.0000
78.8200 142.0000 1.0000
78.8400 168.0000 1.0000
78.8600 145.0000 1.0000
78.8800 166.0000 1.0000
78.9000 148.0000 1.0000
78.9200 141.0000 1.0000
78.9400 150.0000 1.0000
78.9600 167.0000 1.0000
78.9800 146.0000 1.0000
79.0000 160.0000 1.0000
79.0200 145.0000 1.0000
79.0400 145.0000 1.0000
79.0600 158.0000 1.0000
79.0800 146.0000 1.0000
79.1000 140.0000 1.0000
79.1200 183.0000 1.0000
79.1400 158.0000 1.0000
79.1600 143.0000 1.0000
79.1800 150.0000 1.0000
79.2000 150.0000 1.0000
79.2200 151.0000 1.0000
79.2400 147.0000 1.0000
79.2600 152.0000 1.0000
79.2800 141.0000 1.0000
79.3000 150.0000 1.0000
79.3200 159.0000 1.0000
79.3400 160.0000 1.0000
79.3600 142.0000 1.0000
79.3800 154.0000 1.0000
79.4000 153.0000 1.0000
79.4200 168.0000 1.0000
79.4400 155.0000 1.0000
79.4600 137.0000 1.0000
79.4800 153.0000 1.0000
79.5000 150.0000 1.0000
79.5200 167.0000 1.0000
79.5400 137.0000 1.0000
79.5600 151.0000 1.0000
79.5800 133.0000 1.0000
79.6000 138.0000 1.0000
79.6200 182.0000 1.0000
79.6400 161.0000 1.0000
79.6600 188.0000 1.0000
79.6800 144.0000 1.0000
79.7000 153.0000 1.0000
79.7200 157.0000 1.0000
79.7400 167.0000 1.0000
79.7600 163.0000 1.0000
79.7800 153.0000 1.0000
79.8000 168.0000 1.0000
79.8200 146.0000 1.0000
79.8400 162.0000 1.0000
79.8600 159.0000 1.0000
79.8800 170.0000 1.0000
79.9000 186.0000 1.0000
79.9200 178.0000 1.0000
79.9400 159.0000 1.0000
79.9600 187.0000 1.0000
79.9800 174.0000 1.0000
80.0000 155.0000 1.0000
80.0200 190.0000 1.0000
80.0400 171.0000 1.0000
80.0600 150.0000 1.0000
80.0800 154.0000 1.0000
80.1000 155.0000 1.0000
80.1200 151.0000 1.0000
80.1400 188.0000 1.0000
80.1600 173.0000 1.0000
80.1800 170.0000 1.0000
80.2000 148.0000 1.0000
80.2200 192.0000 1.0000
80.2400 165.0000 1.0000
80.2600 157.0000 1.0000
80.2800 161.0000 1.0000
80.3000 149.0000 1.0000
80.3200 162.0000 1.0000
80.3400 169.0000 1.0000
80.3600 169.0000 1.0000
80.3800 169.0000 1.0000
80.4000 152.0000 1.0000
80.4200 163.0000 1.0000
80.4400 170.0000 1.0000
80.4600 147.0000 1.0000
80.4800 152.0000 1.0000
80.5000 147.0000 1.0000
80.5200 171.0000 1.0000
80.5400 171.0000 1.0000
80.5600 151.0000 1.0000
80.5800 148.0000 1.0000
80.6000 156.0000 1.0000
80.6200 150.0000 1.0000
80.6400 152.0000 1.0000
80.6600 160.0000 1.0000
80.6800 161.0000 1.0000
80.7000 154.0000 1.0000
80.7200 137.0000 1.0000
80.7400 149.0000 1.0000
80.7600 161.0000 1.0000
80.7800 160.0000 1.0000
80.8000 160.0000 1.0000
80.8200 161.0000 1.0000
80.8400 162.0000 1.0000
80.8600 161.0000 1.0000
80.8800 172.0000 1.0000
80.9000 145.0000 1.0000
80.9200 150.0000 1.0000
80.9400 162.0000 1.0000
80.9600 160.0000 1.0000
80.9800 138.0000 1.0000
81.0000 159.0000 1.0000
81.0200 144.0000 1.0000
81.0400 150.0000 1.0000
81.0600 135.0000 1.0000
81.0800 156.0000 1.0000
81.1000 197.0000 1.0000
81.1200 158.0000 1.0000
81.1400 187.0000 1.0000
81.1600 158.0000 1.0000
81.1800 165.0000 1.0000
81.2000 182.0000 1.0000
81.2200 207.0000 1.0000
81.2400 169.0000 1.0000
81.2600 208.0000 1.0000
81.2800 184.0000 1.0000
81.3000 175.0000 1.0000
81.3200 151.0000 1.0000
81.3400 166.0000 1.0000
81.3600 141.0000 1.0000
81.3800 160.0000 1.0000
81.4000 159.0000 1.0000
81.4200 193.0000 1.0000
81.4400 154.0000 1.0000
81.4600 162.0000 1.0000
81.4800 188.0000 1.0000
81.5000 182.0000 1.0000
81.5200 188.0000 1.0000
81.5400 165.0000 1.0000
81.5600 172.0000 1.0000
81.5800 181.0000 1.0000
81.6000 167.0000 1.0000
81.6200 154.0000 1.0000
81.6400 160.0000 1.0000
81.6600 158.0000 1.0000
81.6800 135.0000 1.0000
81.7000 146.0000 1.0000
81.7200 165.0000 1.0000
81.7400 161.0000 1.0000
81.7600 150.0000 1.0000
81.7800 150.0000 1.0000
81.8000 147.0000 1.0000
81.8200 168.0000 1.0000
81.8400 167.0000 1.0000
81.8600 165.0000 1.0000
81.8800 155.0000 1.0000
81.9000 142.0000 1.0000
81.9200 165.0000 1.0000
81.9400 152.0000 1.0000
81.9600 172.0000 1.0000
81.9800 170.0000 1.0000
82.0000 176.0000 1.0000
82.0200 160.0000 1.0000
82.0400 161.0000 1.0000
82.0600 138.0000 1.0000
82.0800 151.0000 1.0000
82.1000 134.0000 1.0000
82.1200 165.0000 1.0000
82.1400 163.0000 1.0000
82.1600 155.0000 1.0000
82.1800 168.0000 1.0000
82.2000 143.0000 1.0000
82.2200 150.0000 1.0000
82.2400 175.0000 1.0000
82.2600 144.0000 1.0000
82.2800 155.0000 1.0000
82.3000 135.0000 1.0000
82.3200 135.0000 1.0000
82.3400 156.0000 1.0000
82.3600 165.0000 1.0000
82.3800 139.0000 1.0000
82.4000 156.0000 1.0000
82.4200 157.0000 1.0000
82.4400 161.0000 1.0000
82.4600 149.0000 1.0000
82.4800 128.0000 1.0000
82.5000 138.0000 1.0000
82.5200 143.0000 1.0000
82.5400 128.0000 1.0000
82.5600 173.0000 1.0000
82.5800 155.0000 1.0000
82.6000 164.0000 1.0000
82.6200 150.0000 1.0000
82.6400 166.0000 1.0000
82.6600 140.0000 1.0000
82.6800 152.0000 1.0000
82.7000 161.0000 1.0000
82.7200 157.0000 1.0000
82.7400 137.0000 1.0000
82.7600 136.0000 1.0000
82.7800 135.0000 1.0000
82.8000 159.0000 1.0000
82.8200 145.0000 1.0000
82.8400 149.0000 1.0000
82.8600 157.0000 1.0000
82.8800 158.0000 1.0000
82.9000 161.0000 1.0000
82.9200 144.0000 1.0000
82.9400 166.0000 1.0000
82.9600 134.0000 1.0000
82.9800 166.0000 1.0000
83.0000 156.0000 1.0000
83.0200 165.0000 1.0000
83.0400 152.0000 1.0000
83.0600 145.0000 1.0000
83.0800 128.0000 1.0000
83.1000 176.0000 1.0000
83.1200 131.0000 1.0000
83.1400 157.0000 1.0000
83.1600 159.0000 1.0000
83.1800 170.0000 1.0000
83.2000 157.0000 1.0000
83.2200 147.0000 1.0000
83.2400 133.0000 1.0000
83.2600 146.0000 1.0000
83.2800 144.0000 1.0000
83.3000 153.0000 1.0000
83.3200 140.0000 1.0000
83.3400 134.0000 1.0000
83.3600 155.0000 1.0000
83.3800 150.0000 1.0000
83.4000 135.0000 1.0000
83.4200 138.0000 1.0000
83.4400 159.0000 1.0000
83.4600 157.0000 1.0000
83.4800 151.0000 1.0000
83.5000 152.0000 1.0000
83.5200 140.0000 1.0000
83.5400 140.0000 1.0000
83.5600 171.0000 1.0000
83.5800 155.0000 1.0000
83.6000 171.0000 1.0000
83.6200 159.0000 1.0000
83.6400 176.0000 1.0000
83.6600 166.0000 1.0000
83.6800 148.0000 1.0000
83.7000 176.0000 1.0000
83.7200 162.0000 1.0000
83.7400 153.0000 1.0000
83.7600 141.0000 1.0000
83.7800 139.0000 1.0000
83.8000 155.0000 1.0000
83.8200 151.0000 1.0000
83.8400 151.0000 1.0000
83.8600 164.0000 1.0000
83.8800 174.0000 1.0000
83.9000 140.0000 1.0000
83.9200 170.0000 1.0000
83.9400 173.0000 1.0000
83.9600 187.0000 1.0000
83.9800 156.0000 1.0000
84.0000 164.0000 1.0000
84.0200 161.0000 1.0000
84.0400 160.0000 1.0000
84.0600 138.0000 1.0000
84.0800 161.0000 1.0000
84.1000 143.0000 1.0000
84.1200 154.0000 1.0000
84.1400 168.0000 1.0000
84.1600 152.0000 1.0000
84.1800 158.0000 1.0000
84.2000 171.0000 1.0000
84.2200 159.0000 1.0000
84.2400 166.0000 1.0000
84.2600 141.0000 1.0000
84.2800 151.0000 1.0000
84.3000 160.0000 1.0000
84.3200 150.0000 1.0000
84.3400 150.0000 1.0000
84.3600 148.0000 1.0000
84.3800 145.0000 1.0000
84.4000 144.0000 1.0000
84.4200 144.0000 1.0000
84.4400 142.0000 1.0000
84.4600 155.0000 1.0000
84.4800 146.0000 1.0000
84.5000 140.0000 1.0000
84.5200 177.0000 1.0000
84.5400 142.0000 1.0000
84.5600 155.0000 1.0000
84.5800 184.0000 1.0000
84.6000 149.0000 1.0000
84.6200 149.0000 1.0000
84.6400 144.0000 1.0000
84.6600 152.0000 1.0000
84.6800 156.0000 1.0000
84.7000 172.0000 1.0000
84.7200 163.0000 1.0000
84.7400 147.0000 1.0000
84.7600 175.0000 1.0000
84.7800 145.0000 1.0000
84.8000 167.0000 1.0000
84.8200 152.0000 1.0000
84.8400 142.0000 1.0000
84.8600 156.0000 1.0000
84.8800 146.0000 1.0000
84.9000 136.0000 1.0000
84.9200 159.0000 1.0000
84.9400 125.0000 1.0000
84.9600 165.0000 1.0000
84.9800 150.0000 1.0000
85.0000 141.0000 1.0000
85.0200 147.0000 1.0000
85.0400 148.0000 1.0000
85.0600 166.0000 1.0000
85.0800 157.0000 1.0000
85.1000 131.0000 1.0000
85.1200 147.0000 1.0000
85.1400 138.0000 1.0000
85.1600 161.0000 1.0000
85.1800 150.0000 1.0000
85.2000 168.0000 1.0000
85.2200 175.0000 1.0000
85.2400 141.0000 1.0000
85.2600 159.0000 1.0000
85.2800 150.0000 1.0000
85.3000 127.0000 1.0000
85.3200 152.0000 1.0000
85.3400 170.0000 1.0000
85.3600 153.0000 1.0000
85.3800 132.0000 1.0000
85.4000 136.0000 1.0000
85.4200 156.0000 1.0000
85.4400 145.0000 1.0000
85.4600 145.0000 1.0000
85.4800 143.0000 1.0000
85.5000 149.0000 1.0000
85.5200 131.0000 1.0000
85.5400 154.0000 1.0000
85.5600 161.0000 1.0000
85.5800 146.0000 1.0000
85.6000 157.0000 1.0000
85.6200 148.0000 1.0000
85.6400 164.0000 1.0000
85.6600 137.0000 1.0000
85.6800 140.0000 1.0000
85.7000 139.0000 1.0000
85.7200 149.0000 1.0000
85.7400 157.0000 1.0000
85.7600 148.0000 1.0000
85.7800 168.0000 1.0000
85.8000 152.0000 1.0000
85.8200 162.0000 1.0000
85.8400 146.0000 1.0000
85.8600 136.0000 1.0000
85.8800 140.0000 1.0000
85.9000 132.0000 1.0000
85.9200 160.0000 1.0000
85.9400 137.0000 1.0000
85.9600 150.0000 1.0000
85.9800 146.0000 1.0000
86.0000 148.0000 1.0000
86.0200 140.0000 1.0000
86.0400 140.0000 1.0000
86.0600 140.0000 1.0000
86.0800 139.0000 1.0000
86.1000 138.0000 1.0000
86.1200 168.0000 1.0000
86.1400 149.0000 1.0000
86.1600 155.0000 1.0000
86.1800 154.0000 1.0000
86.2000 160.0000 1.0000
86.2200 144.0000 1.0000
86.2400 141.0000 1.0000
86.2600 171.0000 1.0000
86.2800 169.0000 1.0000
86.3000 141.0000 1.0000
86.3200 133.0000 1.0000
86.3400 135.0000 1.0000
86.3600 163.0000 1.0000
86.3800 147.0000 1.0000
86.4000 155.0000 1.0000
86.4200 161.0000 1.0000
86.4400 139.0000 1.0000
86.4600 178.0000 1.0000
86.4800 146.0000 1.0000
86.5000 180.0000 1.0000
86.5200 168.0000 1.0000
86.5400 147.0000 1.0000
86.5600 155.0000 1.0000
86.5800 160.0000 1.0000
86.6000 136.0000 1.0000
86.6200 156.0000 1.0000
86.6400 155.0000 1.0000
86.6600 156.0000 1.0000
86.6800 133.0000 1.0000
86.7000 163.0000 1.0000
86.7200 139.0000 1.0000
86.7400 147.0000 1.0000
86.7600 134.0000 1.0000
86.7800 133.0000 1.0000
86.8000 135.0000 1.0000
86.8200 145.0000 1.0000
86.8400 148.0000 1.0000
86.8600 146.0000 1.0000
86.8800 167.0000 1.0000
86.9000 166.0000 1.0000
86.9200 173.0000 1.0000
86.9400 145.0000 1.0000
86.9600 151.0000 1.0000
86.9800 165.0000 1.0000
87.0000 133.0000 1.0000
87.0200 152.0000 1.0000
87.0400 154.0000 1.0000
87.0600 156.0000 1.0000
87.0800 131.0000 1.0000
87.1000 168.0000 1.0000
87.1200 174.0000 1.0000
87.1400 152.0000 1.0000
87.1600 146.0000 1.0000
87.1800 166.0000 1.0000
87.2000 172.0000 1.0000
87.2200 156.0000 1.0000
87.2400 162.0000 1.0000
87.2600 152.0000 1.0000
87.2800 114.0000 1.0000
87.3000 147.0000 1.0000
87.3200 149.0000 1.0000
87.3400 155.0000 1.0000
87.3600 153.0000 1.0000
87.3800 166.0000 1.0000
87.4000 167.0000 1.0000
87.4200 157.0000 1.0000
87.4400 135.0000 1.0000
87.4600 167.0000 1.0000
87.4800 162.0000 1.0000
87.5000 147.0000 1.0000
87.5200 165.0000 1.0000
87.5400 122.0000 1.0000
87.5600 136.0000 1.0000
87.5800 139.0000 1.0000
87.6000 137.0000 1.0000
87.6200 162.0000 1.0000
87.6400 141.0000 1.0000
87.6600 160.0000 1.0000
87.6800 141.0000 1.0000
87.7000 161.0000 1.0000
87.7200 139.0000 1.0000
87.7400 135.0000 1.0000
87.7600 149.0000 1.0000
87.7800 149.0000 1.0000
87.8000 173.0000 1.0000
87.8200 154.0000 1.0000
87.8400 131.0000 1.0000
87.8600 152.0000 1.0000
87.8800 167.0000 1.0000
87.9000 117.0000 1.0000
87.9200 163.0000 1.0000
87.9400 156.0000 1.0000
87.9600 146.0000 1.0000
87.9800 161.0000 1.0000
88.0000 146.0000 1.0000
88.0200 158.0000 1.0000
88.0400 145.0000 1.0000
88.0600 139.0000 1.0000
88.0800 153.0000 1.0000
88.1000 128.0000 1.0000
88.1200 152.0000 1.0000
88.1400 125.0000 1.0000
88.1600 167.0000 1.0000
88.1800 147.0000 1.0000
88.2000 143.0000 1.0000
88.2200 148.0000 1.0000
88.2400 156.0000 1.0000
88.2600 144.0000 1.0000
88.2800 160.0000 1.0000
88.3000 155.0000 1.0000
88.3200 132.0000 1.0000
88.3400 149.0000 1.0000
88.3600 144.0000 1.0000
88.3800 148.0000 1.0000
88.4000 153.0000 1.0000
88.4200 142.0000 1.0000
88.4400 148.0000 1.0000
88.4600 153.0000 1.0000
88.4800 140.0000 1.0000
88.5000 151.0000 1.0000
88.5200 143.0000 1.0000
88.5400 157.0000 1.0000
88.5600 149.0000 1.0000
88.5800 156.0000 1.0000
88.6000 137.0000 1.0000
88.6200 143.0000 1.0000
88.6400 136.0000 1.0000
88.6600 157.0000 1.0000
88.6800 166.0000 1.0000
88.7000 143.0000 1.0000
88.7200 145.0000 1.0000
88.7400 141.0000 1.0000
88.7600 150.0000 1.0000
88.7800 155.0000 1.0000
88.8000 168.0000 1.0000
88.8200 153.0000 1.0000
88.8400 160.0000 1.0000
88.8600 143.0000 1.0000
88.8800 156.0000 1.0000
88.9000 151.0000 1.0000
88.9200 134.0000 1.0000
88.9400 140.0000 1.0000
88.9600 151.0000 1.0000
88.9800 134.0000 1.0000
89.0000 142.0000 1.0000
89.0200 139.0000 1.0000
89.0400 133.0000 1.0000
89.0600 172.0000 1.0000
89.0800 140.0000 1.0000
89.1000 144.0000 1.0000
89.1200 135.0000 1.0000
89.1400 142.0000 1.0000
89.1600 169.0000 1.0000
89.1800 144.0000 1.0000
89.2000 159.0000 1.0000
89.2200 161.0000 1.0000
89.2400 151.0000 1.0000
89.2600 144.0000 1.0000
89.2800 144.0000 1.0000
89.3000 151.0000 1.0000
89.3200 143.0000 1.0000
89.3400 142.0000 1.0000
89.3600 145.0000 1.0000
89.3800 137.0000 1.0000
89.4000 160.0000 1.0000
89.4200 139.0000 1.0000
89.4400 158.0000 1.0000
89.4600 158.0000 1.0000
89.4800 148.0000 1.0000
89.5000 161.0000 1.0000
89.5200 155.0000 1.0000
89.5400 144.0000 1.0000
89.5600 129.0000 1.0000
89.5800 134.0000 1.0000
89.6000 137.0000 1.0000
89.6200 139.0000 1.0000
89.6400 127.0000 1.0000
89.6600 153.0000 1.0000
89.6800 149.0000 1.0000
89.7000 174.0000 1.0000
89.7200 130.0000 1.0000
89.7400 157.0000 1.0000
89.7600 157.0000 1.0000
89.7800 135.0000 1.0000
89.8000 146.0000 1.0000
89.8200 157.0000 1.0000
89.8400 148.0000 1.0000
89.8600 158.0000 1.0000
89.8800 142.0000 1.0000
89.9000 133.0000 1.0000
89.9200 164.0000 1.0000
89.9400 155.0000 1.0000
89.9600 143.0000 1.0000
89.9800 147.0000 1.0000
90.0000 155.0000 1.0000
*RAS_INT_END
*RAS_DATA_END
